Time (s),Channel 1 (V)
-0.5,2.885610882
-0.4998,0.835829558
-0.4996,0.835829558
-0.4994,0.835829558
-0.4992,0.835829558
-0.499,0.835829558
-0.4988,0.835829558
-0.4986,0.835829558
-0.4984,0.835829558
-0.4982,0.835829558
-0.498,0.835829558
-0.4978,0.835829558
-0.4976,0.835829558
-0.4974,0.835829558
-0.4972,0.835829558
-0.497,0.835829558
-0.4968,0.835829558
-0.4966,0.835829558
-0.4964,0.835829558
-0.4962,0.835829558
-0.496,0.835829558
-0.4958,0.835829558
-0.4956,0.835829558
-0.4954,0.835829558
-0.4952,0.835829558
-0.495,0.835829558
-0.4948,0.835829558
-0.4946,0.835829558
-0.4944,0.835829558
-0.4942,0.835829558
-0.494,0.835829558
-0.4938,0.835829558
-0.4936,0.835829558
-0.4934,0.835829558
-0.4932,0.835829558
-0.493,0.835829558
-0.4928,0.835829558
-0.4926,0.835829558
-0.4924,0.835829558
-0.4922,0.835829558
-0.492,0.835829558
-0.4918,0.835829558
-0.4916,0.835829558
-0.4914,0.835829558
-0.4912,0.835829558
-0.491,0.835829558
-0.4908,0.835829558
-0.4906,0.835829558
-0.4904,0.835829558
-0.4902,0.835829558
-0.49,0.835829558
-0.4898,0.835829558
-0.4896,0.835829558
-0.4894,0.835829558
-0.4892,0.835829558
-0.489,0.835829558
-0.4888,0.835829558
-0.4886,0.835829558
-0.4884,0.835829558
-0.4882,0.835829558
-0.488,0.835829558
-0.4878,0.835829558
-0.4876,0.835829558
-0.4874,0.835829558
-0.4872,0.835829558
-0.487,0.835829558
-0.4868,0.835829558
-0.4866,0.835829558
-0.4864,0.835829558
-0.4862,0.835829558
-0.486,0.835829558
-0.4858,0.835829558
-0.4856,0.835829558
-0.4854,0.835829558
-0.4852,0.835829558
-0.485,0.835829558
-0.4848,0.835829558
-0.4846,0.835829558
-0.4844,0.835829558
-0.4842,0.835829558
-0.484,0.835829558
-0.4838,0.835829558
-0.4836,0.835829558
-0.4834,0.835829558
-0.4832,0.835829558
-0.483,0.835829558
-0.4828,0.835829558
-0.4826,0.835829558
-0.4824,0.835829558
-0.4822,0.835829558
-0.482,0.835829558
-0.4818,0.835829558
-0.4816,0.835829558
-0.4814,0.835829558
-0.4812,0.835829558
-0.481,0.835829558
-0.4808,0.835829558
-0.4806,0.835829558
-0.4804,0.835829558
-0.4802,0.835829558
-0.48,0.835829558
-0.4798,0.835829558
-0.4796,0.835829558
-0.4794,0.835829558
-0.4792,0.835829558
-0.479,0.835829558
-0.4788,0.835829558
-0.4786,0.835829558
-0.4784,0.835829558
-0.4782,0.835829558
-0.478,0.835829558
-0.4778,0.835829558
-0.4776,0.835829558
-0.4774,0.835829558
-0.4772,0.835829558
-0.477,0.835829558
-0.4768,0.835829558
-0.4766,0.835829558
-0.4764,0.835829558
-0.4762,0.835829558
-0.476,0.835829558
-0.4758,0.835829558
-0.4756,0.835829558
-0.4754,0.835829558
-0.4752,0.835829558
-0.475,0.835829558
-0.4748,0.835829558
-0.4746,0.835829558
-0.4744,0.835829558
-0.4742,0.835829558
-0.474,0.835829558
-0.4738,0.835829558
-0.4736,0.835829558
-0.4734,0.835829558
-0.4732,0.832089081
-0.473,0.835829558
-0.4728,0.835829558
-0.4726,0.835829558
-0.4724,0.835829558
-0.4722,0.835829558
-0.472,0.832089081
-0.4718,0.835829558
-0.4716,0.835829558
-0.4714,0.835829558
-0.4712,0.835829558
-0.471,0.835829558
-0.4708,0.835829558
-0.4706,0.835829558
-0.4704,0.835829558
-0.4702,0.835829558
-0.47,0.835829558
-0.4698,0.835829558
-0.4696,0.835829558
-0.4694,0.835829558
-0.4692,0.835829558
-0.469,0.835829558
-0.4688,0.835829558
-0.4686,0.835829558
-0.4684,0.835829558
-0.4682,0.835829558
-0.468,0.835829558
-0.4678,0.835829558
-0.4676,0.835829558
-0.4674,0.835829558
-0.4672,0.835829558
-0.467,0.835829558
-0.4668,0.835829558
-0.4666,0.835829558
-0.4664,0.835829558
-0.4662,0.835829558
-0.466,0.835829558
-0.4658,0.835829558
-0.4656,0.835829558
-0.4654,0.835829558
-0.4652,0.835829558
-0.465,0.835829558
-0.4648,0.835829558
-0.4646,0.835829558
-0.4644,0.835829558
-0.4642,0.835829558
-0.464,0.835829558
-0.4638,0.835829558
-0.4636,0.835829558
-0.4634,0.835829558
-0.4632,0.835829558
-0.463,0.835829558
-0.4628,0.835829558
-0.4626,0.835829558
-0.4624,0.835829558
-0.4622,0.835829558
-0.462,0.835829558
-0.4618,0.835829558
-0.4616,0.835829558
-0.4614,0.835829558
-0.4612,0.835829558
-0.461,0.835829558
-0.4608,0.835829558
-0.4606,0.835829558
-0.4604,0.835829558
-0.4602,0.835829558
-0.46,0.835829558
-0.4598,0.835829558
-0.4596,0.835829558
-0.4594,0.835829558
-0.4592,0.835829558
-0.459,0.835829558
-0.4588,0.835829558
-0.4586,0.835829558
-0.4584,0.835829558
-0.4582,0.835829558
-0.458,0.835829558
-0.4578,0.835829558
-0.4576,0.835829558
-0.4574,0.835829558
-0.4572,0.835829558
-0.457,0.835829558
-0.4568,0.835829558
-0.4566,0.835829558
-0.4564,0.835829558
-0.4562,0.835829558
-0.456,0.835829558
-0.4558,0.835829558
-0.4556,0.835829558
-0.4554,0.835829558
-0.4552,0.835829558
-0.455,0.835829558
-0.4548,0.835829558
-0.4546,0.835829558
-0.4544,0.835829558
-0.4542,0.835829558
-0.454,0.835829558
-0.4538,0.835829558
-0.4536,0.835829558
-0.4534,0.835829558
-0.4532,0.835829558
-0.453,0.835829558
-0.4528,0.835829558
-0.4526,0.835829558
-0.4524,0.835829558
-0.4522,0.835829558
-0.452,0.835829558
-0.4518,0.835829558
-0.4516,0.835829558
-0.4514,0.835829558
-0.4512,0.835829558
-0.451,0.835829558
-0.4508,0.835829558
-0.4506,0.835829558
-0.4504,0.835829558
-0.4502,0.835829558
-0.45,0.835829558
-0.4498,0.835829558
-0.4496,0.835829558
-0.4494,0.835829558
-0.4492,0.835829558
-0.449,0.835829558
-0.4488,0.835829558
-0.4486,0.835829558
-0.4484,0.835829558
-0.4482,0.835829558
-0.448,0.835829558
-0.4478,0.835829558
-0.4476,0.835829558
-0.4474,0.835829558
-0.4472,0.835829558
-0.447,0.835829558
-0.4468,0.835829558
-0.4466,0.835829558
-0.4464,0.835829558
-0.4462,0.835829558
-0.446,0.835829558
-0.4458,0.835829558
-0.4456,0.835829558
-0.4454,0.835829558
-0.4452,0.835829558
-0.445,0.835829558
-0.4448,0.835829558
-0.4446,0.835829558
-0.4444,0.835829558
-0.4442,0.835829558
-0.444,0.835829558
-0.4438,0.835829558
-0.4436,0.835829558
-0.4434,0.835829558
-0.4432,0.835829558
-0.443,0.835829558
-0.4428,0.835829558
-0.4426,0.835829558
-0.4424,0.835829558
-0.4422,0.835829558
-0.442,0.835829558
-0.4418,0.835829558
-0.4416,0.835829558
-0.4414,0.835829558
-0.4412,0.835829558
-0.441,0.835829558
-0.4408,0.835829558
-0.4406,0.835829558
-0.4404,0.832089081
-0.4402,0.835829558
-0.44,0.835829558
-0.4398,0.835829558
-0.4396,0.835829558
-0.4394,0.835829558
-0.4392,0.835829558
-0.439,0.835829558
-0.4388,0.835829558
-0.4386,0.835829558
-0.4384,0.835829558
-0.4382,0.835829558
-0.438,0.835829558
-0.4378,0.835829558
-0.4376,0.835829558
-0.4374,0.835829558
-0.4372,0.835829558
-0.437,0.835829558
-0.4368,0.835829558
-0.4366,0.835829558
-0.4364,0.835829558
-0.4362,0.835829558
-0.436,0.835829558
-0.4358,0.835829558
-0.4356,0.835829558
-0.4354,0.835829558
-0.4352,0.835829558
-0.435,0.835829558
-0.4348,0.835829558
-0.4346,0.835829558
-0.4344,0.835829558
-0.4342,0.835829558
-0.434,0.835829558
-0.4338,0.835829558
-0.4336,0.835829558
-0.4334,0.835829558
-0.4332,0.835829558
-0.433,0.835829558
-0.4328,0.835829558
-0.4326,0.835829558
-0.4324,0.835829558
-0.4322,0.835829558
-0.432,0.835829558
-0.4318,0.835829558
-0.4316,0.835829558
-0.4314,0.835829558
-0.4312,0.835829558
-0.431,0.835829558
-0.4308,0.835829558
-0.4306,0.835829558
-0.4304,0.835829558
-0.4302,0.835829558
-0.43,0.835829558
-0.4298,0.835829558
-0.4296,0.835829558
-0.4294,0.835829558
-0.4292,0.835829558
-0.429,0.835829558
-0.4288,0.835829558
-0.4286,0.835829558
-0.4284,0.835829558
-0.4282,0.835829558
-0.428,0.835829558
-0.4278,0.835829558
-0.4276,0.835829558
-0.4274,0.835829558
-0.4272,0.835829558
-0.427,0.835829558
-0.4268,0.835829558
-0.4266,0.835829558
-0.4264,0.835829558
-0.4262,0.835829558
-0.426,0.835829558
-0.4258,0.835829558
-0.4256,0.835829558
-0.4254,0.835829558
-0.4252,0.835829558
-0.425,0.835829558
-0.4248,0.835829558
-0.4246,0.835829558
-0.4244,0.835829558
-0.4242,0.835829558
-0.424,0.835829558
-0.4238,0.835829558
-0.4236,0.835829558
-0.4234,0.835829558
-0.4232,0.835829558
-0.423,0.835829558
-0.4228,0.835829558
-0.4226,0.835829558
-0.4224,0.835829558
-0.4222,0.835829558
-0.422,0.835829558
-0.4218,0.835829558
-0.4216,0.835829558
-0.4214,0.835829558
-0.4212,0.832089081
-0.421,0.835829558
-0.4208,0.835829558
-0.4206,0.835829558
-0.4204,0.835829558
-0.4202,0.835829558
-0.42,0.835829558
-0.4198,0.835829558
-0.4196,0.835829558
-0.4194,0.835829558
-0.4192,0.835829558
-0.419,0.835829558
-0.4188,0.835829558
-0.4186,0.835829558
-0.4184,0.835829558
-0.4182,0.835829558
-0.418,0.835829558
-0.4178,0.835829558
-0.4176,0.835829558
-0.4174,0.835829558
-0.4172,0.835829558
-0.417,0.835829558
-0.4168,0.835829558
-0.4166,0.835829558
-0.4164,0.835829558
-0.4162,0.835829558
-0.416,0.835829558
-0.4158,0.835829558
-0.4156,0.835829558
-0.4154,0.835829558
-0.4152,0.835829558
-0.415,0.835829558
-0.4148,0.835829558
-0.4146,0.835829558
-0.4144,0.835829558
-0.4142,0.835829558
-0.414,0.835829558
-0.4138,0.835829558
-0.4136,0.835829558
-0.4134,0.835829558
-0.4132,0.835829558
-0.413,0.835829558
-0.4128,0.835829558
-0.4126,0.835829558
-0.4124,0.835829558
-0.4122,0.835829558
-0.412,0.835829558
-0.4118,0.835829558
-0.4116,0.835829558
-0.4114,0.835829558
-0.4112,0.835829558
-0.411,0.835829558
-0.4108,0.832089081
-0.4106,0.835829558
-0.4104,0.835829558
-0.4102,0.835829558
-0.41,0.835829558
-0.4098,0.835829558
-0.4096,0.835829558
-0.4094,0.835829558
-0.4092,0.835829558
-0.409,0.835829558
-0.4088,0.835829558
-0.4086,0.835829558
-0.4084,0.835829558
-0.4082,0.835829558
-0.408,0.835829558
-0.4078,0.835829558
-0.4076,0.835829558
-0.4074,0.835829558
-0.4072,0.835829558
-0.407,0.835829558
-0.4068,0.835829558
-0.4066,0.835829558
-0.4064,0.835829558
-0.4062,0.835829558
-0.406,0.835829558
-0.4058,0.835829558
-0.4056,0.835829558
-0.4054,0.835829558
-0.4052,0.835829558
-0.405,0.835829558
-0.4048,0.835829558
-0.4046,0.835829558
-0.4044,0.835829558
-0.4042,0.835829558
-0.404,0.835829558
-0.4038,0.835829558
-0.4036,0.835829558
-0.4034,0.832089081
-0.4032,0.835829558
-0.403,0.835829558
-0.4028,0.835829558
-0.4026,0.835829558
-0.4024,0.835829558
-0.4022,0.835829558
-0.402,0.835829558
-0.4018,0.835829558
-0.4016,0.835829558
-0.4014,0.835829558
-0.4012,0.835829558
-0.401,0.835829558
-0.4008,0.835829558
-0.4006,0.835829558
-0.4004,0.835829558
-0.4002,0.835829558
-0.4,0.835829558
-0.3998,0.835829558
-0.3996,0.835829558
-0.3994,0.835829558
-0.3992,0.835829558
-0.399,0.835829558
-0.3988,0.835829558
-0.3986,0.835829558
-0.3984,0.835829558
-0.3982,0.835829558
-0.398,0.835829558
-0.3978,0.835829558
-0.3976,0.835829558
-0.3974,0.835829558
-0.3972,0.835829558
-0.397,0.835829558
-0.3968,0.835829558
-0.3966,0.835829558
-0.3964,0.835829558
-0.3962,0.835829558
-0.396,0.835829558
-0.3958,0.835829558
-0.3956,0.835829558
-0.3954,0.835829558
-0.3952,0.835829558
-0.395,0.835829558
-0.3948,0.835829558
-0.3946,0.835829558
-0.3944,0.835829558
-0.3942,0.835829558
-0.394,0.835829558
-0.3938,0.835829558
-0.3936,0.835829558
-0.3934,0.835829558
-0.3932,0.835829558
-0.393,0.835829558
-0.3928,0.835829558
-0.3926,0.835829558
-0.3924,0.835829558
-0.3922,0.835829558
-0.392,0.835829558
-0.3918,0.835829558
-0.3916,0.835829558
-0.3914,0.835829558
-0.3912,0.835829558
-0.391,0.835829558
-0.3908,0.835829558
-0.3906,0.835829558
-0.3904,0.835829558
-0.3902,0.835829558
-0.39,0.835829558
-0.3898,0.835829558
-0.3896,0.835829558
-0.3894,0.835829558
-0.3892,0.835829558
-0.389,0.835829558
-0.3888,0.835829558
-0.3886,0.835829558
-0.3884,0.835829558
-0.3882,0.835829558
-0.388,0.835829558
-0.3878,0.835829558
-0.3876,0.835829558
-0.3874,0.835829558
-0.3872,0.835829558
-0.387,0.835829558
-0.3868,0.835829558
-0.3866,0.835829558
-0.3864,0.835829558
-0.3862,0.835829558
-0.386,0.835829558
-0.3858,0.835829558
-0.3856,0.835829558
-0.3854,0.835829558
-0.3852,0.835829558
-0.385,0.835829558
-0.3848,0.835829558
-0.3846,0.835829558
-0.3844,0.835829558
-0.3842,0.835829558
-0.384,0.835829558
-0.3838,0.835829558
-0.3836,0.835829558
-0.3834,0.835829558
-0.3832,0.835829558
-0.383,0.835829558
-0.3828,0.835829558
-0.3826,0.835829558
-0.3824,0.835829558
-0.3822,0.835829558
-0.382,0.835829558
-0.3818,0.835829558
-0.3816,0.835829558
-0.3814,0.835829558
-0.3812,0.835829558
-0.381,0.835829558
-0.3808,0.835829558
-0.3806,0.835829558
-0.3804,0.835829558
-0.3802,0.835829558
-0.38,0.835829558
-0.3798,0.835829558
-0.3796,0.835829558
-0.3794,0.835829558
-0.3792,0.835829558
-0.379,0.835829558
-0.3788,0.835829558
-0.3786,0.835829558
-0.3784,0.835829558
-0.3782,0.835829558
-0.378,0.835829558
-0.3778,0.835829558
-0.3776,0.835829558
-0.3774,0.835829558
-0.3772,0.835829558
-0.377,0.835829558
-0.3768,0.835829558
-0.3766,0.835829558
-0.3764,0.835829558
-0.3762,0.835829558
-0.376,0.835829558
-0.3758,0.835829558
-0.3756,0.835829558
-0.3754,0.835829558
-0.3752,0.835829558
-0.375,0.835829558
-0.3748,0.835829558
-0.3746,0.835829558
-0.3744,0.835829558
-0.3742,0.835829558
-0.374,0.835829558
-0.3738,0.835829558
-0.3736,0.835829558
-0.3734,0.835829558
-0.3732,0.835829558
-0.373,0.835829558
-0.3728,0.835829558
-0.3726,0.835829558
-0.3724,0.835829558
-0.3722,0.835829558
-0.372,0.835829558
-0.3718,0.835829558
-0.3716,0.835829558
-0.3714,0.835829558
-0.3712,0.835829558
-0.371,0.835829558
-0.3708,0.835829558
-0.3706,0.835829558
-0.3704,0.835829558
-0.3702,0.835829558
-0.37,0.835829558
-0.3698,0.835829558
-0.3696,0.835829558
-0.3694,0.835829558
-0.3692,0.835829558
-0.369,0.835829558
-0.3688,0.835829558
-0.3686,0.835829558
-0.3684,0.835829558
-0.3682,0.835829558
-0.368,0.835829558
-0.3678,0.835829558
-0.3676,0.835829558
-0.3674,0.835829558
-0.3672,0.835829558
-0.367,0.835829558
-0.3668,0.835829558
-0.3666,0.835829558
-0.3664,0.835829558
-0.3662,0.835829558
-0.366,0.835829558
-0.3658,0.835829558
-0.3656,0.835829558
-0.3654,0.835829558
-0.3652,0.835829558
-0.365,0.835829558
-0.3648,0.835829558
-0.3646,0.835829558
-0.3644,0.835829558
-0.3642,0.835829558
-0.364,0.835829558
-0.3638,0.835829558
-0.3636,0.835829558
-0.3634,0.835829558
-0.3632,0.835829558
-0.363,0.835829558
-0.3628,0.835829558
-0.3626,0.835829558
-0.3624,0.835829558
-0.3622,0.835829558
-0.362,0.835829558
-0.3618,0.835829558
-0.3616,0.835829558
-0.3614,0.835829558
-0.3612,0.835829558
-0.361,0.835829558
-0.3608,0.835829558
-0.3606,0.835829558
-0.3604,0.835829558
-0.3602,0.835829558
-0.36,0.835829558
-0.3598,0.835829558
-0.3596,0.835829558
-0.3594,0.835829558
-0.3592,0.835829558
-0.359,0.835829558
-0.3588,0.835829558
-0.3586,0.835829558
-0.3584,0.835829558
-0.3582,0.835829558
-0.358,0.835829558
-0.3578,0.835829558
-0.3576,0.835829558
-0.3574,0.835829558
-0.3572,0.835829558
-0.357,0.835829558
-0.3568,0.835829558
-0.3566,0.835829558
-0.3564,0.835829558
-0.3562,0.835829558
-0.356,0.835829558
-0.3558,0.835829558
-0.3556,0.832089081
-0.3554,0.835829558
-0.3552,0.835829558
-0.355,0.832089081
-0.3548,0.835829558
-0.3546,0.835829558
-0.3544,0.832089081
-0.3542,0.835829558
-0.354,0.835829558
-0.3538,0.835829558
-0.3536,0.835829558
-0.3534,0.835829558
-0.3532,0.835829558
-0.353,0.835829558
-0.3528,0.835829558
-0.3526,0.832089081
-0.3524,0.835829558
-0.3522,0.832089081
-0.352,0.835829558
-0.3518,0.835829558
-0.3516,0.835829558
-0.3514,0.835829558
-0.3512,0.835829558
-0.351,0.835829558
-0.3508,0.835829558
-0.3506,0.835829558
-0.3504,0.835829558
-0.3502,0.835829558
-0.35,0.835829558
-0.3498,0.835829558
-0.3496,0.835829558
-0.3494,0.835829558
-0.3492,0.835829558
-0.349,0.835829558
-0.3488,0.835829558
-0.3486,0.835829558
-0.3484,0.835829558
-0.3482,0.835829558
-0.348,0.835829558
-0.3478,0.835829558
-0.3476,0.835829558
-0.3474,0.835829558
-0.3472,0.835829558
-0.347,0.835829558
-0.3468,0.835829558
-0.3466,0.835829558
-0.3464,0.835829558
-0.3462,0.835829558
-0.346,0.835829558
-0.3458,0.835829558
-0.3456,0.835829558
-0.3454,0.835829558
-0.3452,0.835829558
-0.345,0.835829558
-0.3448,0.835829558
-0.3446,0.835829558
-0.3444,0.835829558
-0.3442,0.835829558
-0.344,0.835829558
-0.3438,0.835829558
-0.3436,0.835829558
-0.3434,0.835829558
-0.3432,0.835829558
-0.343,0.835829558
-0.3428,0.835829558
-0.3426,0.832089081
-0.3424,0.835829558
-0.3422,0.835829558
-0.342,0.835829558
-0.3418,0.835829558
-0.3416,0.835829558
-0.3414,0.835829558
-0.3412,0.835829558
-0.341,0.835829558
-0.3408,0.835829558
-0.3406,0.835829558
-0.3404,0.832089081
-0.3402,0.835829558
-0.34,0.835829558
-0.3398,0.835829558
-0.3396,0.835829558
-0.3394,0.835829558
-0.3392,0.832089081
-0.339,0.835829558
-0.3388,0.835829558
-0.3386,0.835829558
-0.3384,0.835829558
-0.3382,0.835829558
-0.338,0.835829558
-0.3378,0.835829558
-0.3376,0.835829558
-0.3374,0.835829558
-0.3372,0.835829558
-0.337,0.835829558
-0.3368,0.835829558
-0.3366,0.835829558
-0.3364,0.835829558
-0.3362,0.835829558
-0.336,0.835829558
-0.3358,0.835829558
-0.3356,0.835829558
-0.3354,0.835829558
-0.3352,0.835829558
-0.335,0.835829558
-0.3348,0.835829558
-0.3346,0.835829558
-0.3344,0.835829558
-0.3342,0.835829558
-0.334,0.835829558
-0.3338,0.832089081
-0.3336,0.832089081
-0.3334,0.835829558
-0.3332,0.835829558
-0.333,0.835829558
-0.3328,0.835829558
-0.3326,0.835829558
-0.3324,0.835829558
-0.3322,0.835829558
-0.332,0.835829558
-0.3318,0.835829558
-0.3316,0.835829558
-0.3314,0.835829558
-0.3312,0.835829558
-0.331,0.835829558
-0.3308,0.835829558
-0.3306,0.835829558
-0.3304,0.835829558
-0.3302,0.835829558
-0.33,0.835829558
-0.3298,0.835829558
-0.3296,0.835829558
-0.3294,0.835829558
-0.3292,0.835829558
-0.329,0.835829558
-0.3288,0.835829558
-0.3286,0.835829558
-0.3284,0.835829558
-0.3282,0.835829558
-0.328,0.835829558
-0.3278,0.835829558
-0.3276,0.835829558
-0.3274,0.835829558
-0.3272,0.835829558
-0.327,0.835829558
-0.3268,0.835829558
-0.3266,0.835829558
-0.3264,0.835829558
-0.3262,0.835829558
-0.326,0.835829558
-0.3258,0.835829558
-0.3256,0.835829558
-0.3254,0.835829558
-0.3252,0.835829558
-0.325,0.835829558
-0.3248,0.835829558
-0.3246,0.835829558
-0.3244,0.835829558
-0.3242,0.835829558
-0.324,0.835829558
-0.3238,0.835829558
-0.3236,0.835829558
-0.3234,0.835829558
-0.3232,0.835829558
-0.323,0.835829558
-0.3228,0.832089081
-0.3226,0.835829558
-0.3224,0.835829558
-0.3222,0.835829558
-0.322,0.835829558
-0.3218,0.835829558
-0.3216,0.835829558
-0.3214,0.835829558
-0.3212,0.835829558
-0.321,0.835829558
-0.3208,0.835829558
-0.3206,0.835829558
-0.3204,0.835829558
-0.3202,0.835829558
-0.32,0.835829558
-0.3198,0.835829558
-0.3196,0.835829558
-0.3194,0.835829558
-0.3192,0.835829558
-0.319,0.835829558
-0.3188,0.835829558
-0.3186,0.835829558
-0.3184,0.835829558
-0.3182,0.835829558
-0.318,0.835829558
-0.3178,0.835829558
-0.3176,0.835829558
-0.3174,0.835829558
-0.3172,0.835829558
-0.317,0.835829558
-0.3168,0.835829558
-0.3166,0.835829558
-0.3164,0.835829558
-0.3162,0.835829558
-0.316,0.835829558
-0.3158,0.835829558
-0.3156,0.835829558
-0.3154,0.835829558
-0.3152,0.835829558
-0.315,0.835829558
-0.3148,0.835829558
-0.3146,0.835829558
-0.3144,0.835829558
-0.3142,0.835829558
-0.314,0.835829558
-0.3138,0.835829558
-0.3136,0.835829558
-0.3134,0.835829558
-0.3132,0.835829558
-0.313,0.835829558
-0.3128,0.835829558
-0.3126,0.835829558
-0.3124,0.835829558
-0.3122,0.835829558
-0.312,0.835829558
-0.3118,0.835829558
-0.3116,0.835829558
-0.3114,0.835829558
-0.3112,0.835829558
-0.311,0.835829558
-0.3108,0.835829558
-0.3106,0.835829558
-0.3104,0.835829558
-0.3102,0.835829558
-0.31,0.835829558
-0.3098,0.835829558
-0.3096,0.835829558
-0.3094,0.835829558
-0.3092,0.835829558
-0.309,0.835829558
-0.3088,0.835829558
-0.3086,0.835829558
-0.3084,0.835829558
-0.3082,0.835829558
-0.308,0.835829558
-0.3078,0.835829558
-0.3076,0.835829558
-0.3074,0.835829558
-0.3072,0.835829558
-0.307,0.835829558
-0.3068,0.835829558
-0.3066,0.835829558
-0.3064,0.835829558
-0.3062,0.835829558
-0.306,0.835829558
-0.3058,0.835829558
-0.3056,0.832089081
-0.3054,0.835829558
-0.3052,0.835829558
-0.305,0.832089081
-0.3048,0.835829558
-0.3046,0.832089081
-0.3044,0.835829558
-0.3042,0.835829558
-0.304,0.835829558
-0.3038,0.832089081
-0.3036,0.835829558
-0.3034,0.835829558
-0.3032,0.835829558
-0.303,0.835829558
-0.3028,0.835829558
-0.3026,0.835829558
-0.3024,0.835829558
-0.3022,0.835829558
-0.302,0.835829558
-0.3018,0.835829558
-0.3016,0.835829558
-0.3014,0.835829558
-0.3012,0.835829558
-0.301,0.835829558
-0.3008,0.835829558
-0.3006,0.835829558
-0.3004,0.835829558
-0.3002,0.835829558
-0.3,0.835829558
-0.2998,0.835829558
-0.2996,0.835829558
-0.2994,0.835829558
-0.2992,0.835829558
-0.299,0.835829558
-0.2988,0.835829558
-0.2986,0.835829558
-0.2984,0.835829558
-0.2982,0.835829558
-0.298,0.835829558
-0.2978,0.835829558
-0.2976,0.835829558
-0.2974,0.835829558
-0.2972,0.835829558
-0.297,0.835829558
-0.2968,0.835829558
-0.2966,0.835829558
-0.2964,0.835829558
-0.2962,0.835829558
-0.296,0.835829558
-0.2958,0.835829558
-0.2956,0.835829558
-0.2954,0.835829558
-0.2952,0.835829558
-0.295,0.835829558
-0.2948,0.835829558
-0.2946,0.835829558
-0.2944,0.835829558
-0.2942,0.835829558
-0.294,0.835829558
-0.2938,0.835829558
-0.2936,0.835829558
-0.2934,0.835829558
-0.2932,0.835829558
-0.293,0.835829558
-0.2928,0.835829558
-0.2926,0.835829558
-0.2924,0.835829558
-0.2922,0.835829558
-0.292,0.835829558
-0.2918,0.835829558
-0.2916,0.835829558
-0.2914,0.835829558
-0.2912,0.835829558
-0.291,0.835829558
-0.2908,0.835829558
-0.2906,0.835829558
-0.2904,0.835829558
-0.2902,0.835829558
-0.29,0.835829558
-0.2898,0.835829558
-0.2896,0.835829558
-0.2894,0.835829558
-0.2892,0.835829558
-0.289,0.835829558
-0.2888,0.835829558
-0.2886,0.835829558
-0.2884,0.835829558
-0.2882,0.835829558
-0.288,0.835829558
-0.2878,0.835829558
-0.2876,0.835829558
-0.2874,0.835829558
-0.2872,0.835829558
-0.287,0.835829558
-0.2868,0.835829558
-0.2866,0.835829558
-0.2864,0.835829558
-0.2862,0.835829558
-0.286,0.835829558
-0.2858,0.835829558
-0.2856,0.835829558
-0.2854,0.835829558
-0.2852,0.835829558
-0.285,0.835829558
-0.2848,0.835829558
-0.2846,0.835829558
-0.2844,0.835829558
-0.2842,0.835829558
-0.284,0.835829558
-0.2838,0.835829558
-0.2836,0.835829558
-0.2834,0.835829558
-0.2832,0.835829558
-0.283,0.835829558
-0.2828,0.835829558
-0.2826,0.835829558
-0.2824,0.835829558
-0.2822,0.835829558
-0.282,0.835829558
-0.2818,0.835829558
-0.2816,0.835829558
-0.2814,0.835829558
-0.2812,0.835829558
-0.281,0.835829558
-0.2808,0.835829558
-0.2806,0.835829558
-0.2804,0.835829558
-0.2802,0.835829558
-0.28,0.835829558
-0.2798,0.835829558
-0.2796,0.835829558
-0.2794,0.835829558
-0.2792,0.835829558
-0.279,0.835829558
-0.2788,0.835829558
-0.2786,0.835829558
-0.2784,0.835829558
-0.2782,0.835829558
-0.278,0.835829558
-0.2778,0.835829558
-0.2776,0.835829558
-0.2774,0.835829558
-0.2772,0.835829558
-0.277,0.835829558
-0.2768,0.835829558
-0.2766,0.835829558
-0.2764,0.835829558
-0.2762,0.835829558
-0.276,0.835829558
-0.2758,0.835829558
-0.2756,0.835829558
-0.2754,0.835829558
-0.2752,0.835829558
-0.275,0.835829558
-0.2748,0.835829558
-0.2746,0.832089081
-0.2744,0.835829558
-0.2742,0.835829558
-0.274,0.835829558
-0.2738,0.835829558
-0.2736,0.835829558
-0.2734,0.835829558
-0.2732,0.835829558
-0.273,0.835829558
-0.2728,0.835829558
-0.2726,0.835829558
-0.2724,0.835829558
-0.2722,0.835829558
-0.272,0.835829558
-0.2718,0.835829558
-0.2716,0.835829558
-0.2714,0.835829558
-0.2712,0.835829558
-0.271,0.835829558
-0.2708,0.835829558
-0.2706,0.835829558
-0.2704,0.835829558
-0.2702,0.835829558
-0.27,0.835829558
-0.2698,0.835829558
-0.2696,0.835829558
-0.2694,0.835829558
-0.2692,0.835829558
-0.269,0.835829558
-0.2688,0.835829558
-0.2686,0.835829558
-0.2684,0.835829558
-0.2682,0.835829558
-0.268,0.835829558
-0.2678,0.835829558
-0.2676,0.835829558
-0.2674,0.835829558
-0.2672,0.835829558
-0.267,0.835829558
-0.2668,0.835829558
-0.2666,0.835829558
-0.2664,0.835829558
-0.2662,0.835829558
-0.266,0.835829558
-0.2658,0.835829558
-0.2656,0.835829558
-0.2654,0.835829558
-0.2652,0.835829558
-0.265,0.835829558
-0.2648,0.835829558
-0.2646,0.835829558
-0.2644,0.835829558
-0.2642,0.832089081
-0.264,0.835829558
-0.2638,0.835829558
-0.2636,0.835829558
-0.2634,0.835829558
-0.2632,0.835829558
-0.263,0.835829558
-0.2628,0.835829558
-0.2626,0.835829558
-0.2624,0.835829558
-0.2622,0.835829558
-0.262,0.835829558
-0.2618,0.835829558
-0.2616,0.835829558
-0.2614,0.835829558
-0.2612,0.835829558
-0.261,0.835829558
-0.2608,0.835829558
-0.2606,0.835829558
-0.2604,0.835829558
-0.2602,0.835829558
-0.26,0.835829558
-0.2598,0.835829558
-0.2596,0.835829558
-0.2594,0.835829558
-0.2592,0.835829558
-0.259,0.835829558
-0.2588,0.835829558
-0.2586,0.835829558
-0.2584,0.835829558
-0.2582,0.835829558
-0.258,0.835829558
-0.2578,0.835829558
-0.2576,0.835829558
-0.2574,0.835829558
-0.2572,0.835829558
-0.257,0.835829558
-0.2568,0.835829558
-0.2566,0.835829558
-0.2564,0.835829558
-0.2562,0.835829558
-0.256,0.835829558
-0.2558,0.835829558
-0.2556,0.835829558
-0.2554,0.835829558
-0.2552,0.835829558
-0.255,0.835829558
-0.2548,0.835829558
-0.2546,0.835829558
-0.2544,0.835829558
-0.2542,0.835829558
-0.254,0.835829558
-0.2538,0.835829558
-0.2536,0.835829558
-0.2534,0.835829558
-0.2532,0.835829558
-0.253,0.835829558
-0.2528,0.835829558
-0.2526,0.835829558
-0.2524,0.835829558
-0.2522,0.835829558
-0.252,0.835829558
-0.2518,0.835829558
-0.2516,0.835829558
-0.2514,0.835829558
-0.2512,0.835829558
-0.251,0.835829558
-0.2508,0.835829558
-0.2506,0.835829558
-0.2504,0.835829558
-0.2502,0.835829558
-0.25,0.832089081
-0.2498,0.835829558
-0.2496,0.835829558
-0.2494,0.835829558
-0.2492,0.835829558
-0.249,0.832089081
-0.2488,0.835829558
-0.2486,0.835829558
-0.2484,0.832089081
-0.2482,0.835829558
-0.248,0.832089081
-0.2478,0.835829558
-0.2476,0.835829558
-0.2474,0.835829558
-0.2472,0.835829558
-0.247,0.835829558
-0.2468,0.835829558
-0.2466,0.835829558
-0.2464,0.835829558
-0.2462,0.835829558
-0.246,0.835829558
-0.2458,0.835829558
-0.2456,0.835829558
-0.2454,0.835829558
-0.2452,0.832089081
-0.245,0.835829558
-0.2448,0.835829558
-0.2446,0.835829558
-0.2444,0.835829558
-0.2442,0.835829558
-0.244,0.835829558
-0.2438,0.835829558
-0.2436,0.835829558
-0.2434,0.835829558
-0.2432,0.835829558
-0.243,0.835829558
-0.2428,0.835829558
-0.2426,0.835829558
-0.2424,0.832089081
-0.2422,0.835829558
-0.242,0.835829558
-0.2418,0.835829558
-0.2416,0.832089081
-0.2414,0.835829558
-0.2412,0.832089081
-0.241,0.835829558
-0.2408,0.835829558
-0.2406,0.835829558
-0.2404,0.835829558
-0.2402,0.832089081
-0.24,0.832089081
-0.2398,0.832089081
-0.2396,0.832089081
-0.2394,0.835829558
-0.2392,0.835829558
-0.239,0.835829558
-0.2388,0.835829558
-0.2386,0.835829558
-0.2384,0.832089081
-0.2382,0.835829558
-0.238,0.835829558
-0.2378,0.835829558
-0.2376,0.832089081
-0.2374,0.835829558
-0.2372,0.835829558
-0.237,0.835829558
-0.2368,0.835829558
-0.2366,0.835829558
-0.2364,0.835829558
-0.2362,0.835829558
-0.236,0.835829558
-0.2358,0.835829558
-0.2356,0.835829558
-0.2354,0.835829558
-0.2352,0.835829558
-0.235,0.835829558
-0.2348,0.832089081
-0.2346,0.832089081
-0.2344,0.832089081
-0.2342,0.832089081
-0.234,0.835829558
-0.2338,0.835829558
-0.2336,0.835829558
-0.2334,0.835829558
-0.2332,0.835829558
-0.233,0.832089081
-0.2328,0.835829558
-0.2326,0.835829558
-0.2324,0.835829558
-0.2322,0.835829558
-0.232,0.835829558
-0.2318,0.835829558
-0.2316,0.835829558
-0.2314,0.835829558
-0.2312,0.835829558
-0.231,0.832089081
-0.2308,0.835829558
-0.2306,0.835829558
-0.2304,0.835829558
-0.2302,0.835829558
-0.23,0.832089081
-0.2298,0.832089081
-0.2296,0.835829558
-0.2294,0.835829558
-0.2292,0.832089081
-0.229,0.832089081
-0.2288,0.832089081
-0.2286,0.832089081
-0.2284,0.835829558
-0.2282,0.835829558
-0.228,0.835829558
-0.2278,0.835829558
-0.2276,0.835829558
-0.2274,0.832089081
-0.2272,0.832089081
-0.227,0.832089081
-0.2268,0.835829558
-0.2266,0.835829558
-0.2264,0.832089081
-0.2262,0.832089081
-0.226,0.832089081
-0.2258,0.835829558
-0.2256,0.835829558
-0.2254,0.835829558
-0.2252,0.835829558
-0.225,0.835829558
-0.2248,0.835829558
-0.2246,0.835829558
-0.2244,0.835829558
-0.2242,0.832089081
-0.224,0.832089081
-0.2238,0.832089081
-0.2236,0.832089081
-0.2234,0.835829558
-0.2232,0.832089081
-0.223,0.832089081
-0.2228,0.832089081
-0.2226,0.832089081
-0.2224,0.835829558
-0.2222,0.832089081
-0.222,0.835829558
-0.2218,0.835829558
-0.2216,0.835829558
-0.2214,0.835829558
-0.2212,0.835829558
-0.221,0.832089081
-0.2208,0.832089081
-0.2206,0.832089081
-0.2204,0.835829558
-0.2202,0.835829558
-0.22,0.832089081
-0.2198,0.835829558
-0.2196,0.835829558
-0.2194,0.835829558
-0.2192,0.832089081
-0.219,0.835829558
-0.2188,0.835829558
-0.2186,0.835829558
-0.2184,0.835829558
-0.2182,0.835829558
-0.218,0.832089081
-0.2178,0.835829558
-0.2176,0.835829558
-0.2174,0.835829558
-0.2172,0.832089081
-0.217,0.835829558
-0.2168,0.835829558
-0.2166,0.835829558
-0.2164,0.835829558
-0.2162,0.835829558
-0.216,0.835829558
-0.2158,0.835829558
-0.2156,0.832089081
-0.2154,0.832089081
-0.2152,0.832089081
-0.215,0.832089081
-0.2148,0.832089081
-0.2146,0.832089081
-0.2144,0.832089081
-0.2142,0.832089081
-0.214,0.832089081
-0.2138,0.832089081
-0.2136,0.832089081
-0.2134,0.835829558
-0.2132,0.835829558
-0.213,0.835829558
-0.2128,0.832089081
-0.2126,0.832089081
-0.2124,0.835829558
-0.2122,0.835829558
-0.212,0.832089081
-0.2118,0.835829558
-0.2116,0.835829558
-0.2114,0.832089081
-0.2112,0.835829558
-0.211,0.835829558
-0.2108,0.835829558
-0.2106,0.835829558
-0.2104,0.835829558
-0.2102,0.835829558
-0.21,0.835829558
-0.2098,0.835829558
-0.2096,0.835829558
-0.2094,0.835829558
-0.2092,0.835829558
-0.209,0.835829558
-0.2088,0.835829558
-0.2086,0.835829558
-0.2084,0.835829558
-0.2082,0.835829558
-0.208,0.835829558
-0.2078,0.835829558
-0.2076,0.835829558
-0.2074,0.835829558
-0.2072,0.835829558
-0.207,0.835829558
-0.2068,0.835829558
-0.2066,0.835829558
-0.2064,0.835829558
-0.2062,0.835829558
-0.206,0.835829558
-0.2058,0.835829558
-0.2056,0.835829558
-0.2054,0.835829558
-0.2052,0.835829558
-0.205,0.835829558
-0.2048,0.835829558
-0.2046,0.835829558
-0.2044,0.835829558
-0.2042,0.832089081
-0.204,0.835829558
-0.2038,0.835829558
-0.2036,0.835829558
-0.2034,0.835829558
-0.2032,0.832089081
-0.203,0.835829558
-0.2028,0.835829558
-0.2026,0.835829558
-0.2024,0.835829558
-0.2022,0.835829558
-0.202,0.835829558
-0.2018,0.835829558
-0.2016,0.835829558
-0.2014,0.835829558
-0.2012,0.835829558
-0.201,0.835829558
-0.2008,0.835829558
-0.2006,0.835829558
-0.2004,0.835829558
-0.2002,0.835829558
-0.2,0.835829558
-0.1998,0.835829558
-0.1996,0.835829558
-0.1994,0.835829558
-0.1992,0.835829558
-0.199,0.835829558
-0.1988,0.835829558
-0.1986,0.835829558
-0.1984,0.835829558
-0.1982,0.835829558
-0.198,0.835829558
-0.1978,0.835829558
-0.1976,0.835829558
-0.1974,0.835829558
-0.1972,0.835829558
-0.197,0.835829558
-0.1968,0.835829558
-0.1966,0.835829558
-0.1964,0.835829558
-0.1962,0.835829558
-0.196,0.835829558
-0.1958,0.835829558
-0.1956,0.835829558
-0.1954,0.835829558
-0.1952,0.835829558
-0.195,0.835829558
-0.1948,0.832089081
-0.1946,0.835829558
-0.1944,0.835829558
-0.1942,0.835829558
-0.194,0.835829558
-0.1938,0.835829558
-0.1936,0.835829558
-0.1934,0.835829558
-0.1932,0.835829558
-0.193,0.835829558
-0.1928,0.835829558
-0.1926,0.835829558
-0.1924,0.835829558
-0.1922,0.835829558
-0.192,0.835829558
-0.1918,0.835829558
-0.1916,0.832089081
-0.1914,0.835829558
-0.1912,0.835829558
-0.191,0.835829558
-0.1908,0.835829558
-0.1906,0.835829558
-0.1904,0.835829558
-0.1902,0.835829558
-0.19,0.835829558
-0.1898,0.835829558
-0.1896,0.835829558
-0.1894,0.835829558
-0.1892,0.835829558
-0.189,0.835829558
-0.1888,0.835829558
-0.1886,0.835829558
-0.1884,0.835829558
-0.1882,0.835829558
-0.188,0.835829558
-0.1878,0.835829558
-0.1876,0.835829558
-0.1874,0.835829558
-0.1872,0.835829558
-0.187,0.835829558
-0.1868,0.835829558
-0.1866,0.835829558
-0.1864,0.835829558
-0.1862,0.835829558
-0.186,0.835829558
-0.1858,0.832089081
-0.1856,0.835829558
-0.1854,0.835829558
-0.1852,0.835829558
-0.185,0.835829558
-0.1848,0.835829558
-0.1846,0.835829558
-0.1844,0.832089081
-0.1842,0.835829558
-0.184,0.835829558
-0.1838,0.832089081
-0.1836,0.832089081
-0.1834,0.835829558
-0.1832,0.835829558
-0.183,0.835829558
-0.1828,0.835829558
-0.1826,0.835829558
-0.1824,0.835829558
-0.1822,0.835829558
-0.182,0.832089081
-0.1818,0.832089081
-0.1816,0.832089081
-0.1814,0.835829558
-0.1812,0.835829558
-0.181,0.832089081
-0.1808,0.835829558
-0.1806,0.832089081
-0.1804,0.835829558
-0.1802,0.835829558
-0.18,0.835829558
-0.1798,0.835829558
-0.1796,0.835829558
-0.1794,0.835829558
-0.1792,0.835829558
-0.179,0.835829558
-0.1788,0.835829558
-0.1786,0.835829558
-0.1784,0.835829558
-0.1782,0.835829558
-0.178,0.835829558
-0.1778,0.835829558
-0.1776,0.835829558
-0.1774,0.835829558
-0.1772,0.835829558
-0.177,0.835829558
-0.1768,0.835829558
-0.1766,0.835829558
-0.1764,0.835829558
-0.1762,0.835829558
-0.176,0.835829558
-0.1758,0.835829558
-0.1756,0.832089081
-0.1754,0.835829558
-0.1752,0.835829558
-0.175,0.835829558
-0.1748,0.835829558
-0.1746,0.835829558
-0.1744,0.835829558
-0.1742,0.832089081
-0.174,0.835829558
-0.1738,0.835829558
-0.1736,0.835829558
-0.1734,0.835829558
-0.1732,0.832089081
-0.173,0.832089081
-0.1728,0.835829558
-0.1726,0.832089081
-0.1724,0.832089081
-0.1722,0.832089081
-0.172,0.835829558
-0.1718,0.832089081
-0.1716,0.832089081
-0.1714,0.835829558
-0.1712,0.832089081
-0.171,0.832089081
-0.1708,0.832089081
-0.1706,0.832089081
-0.1704,0.832089081
-0.1702,0.832089081
-0.17,0.832089081
-0.1698,0.835829558
-0.1696,0.835829558
-0.1694,0.835829558
-0.1692,0.835829558
-0.169,0.835829558
-0.1688,0.832089081
-0.1686,0.835829558
-0.1684,0.835829558
-0.1682,0.835829558
-0.168,0.832089081
-0.1678,0.835829558
-0.1676,0.835829558
-0.1674,0.835829558
-0.1672,0.832089081
-0.167,0.832089081
-0.1668,0.835829558
-0.1666,0.832089081
-0.1664,0.832089081
-0.1662,0.832089081
-0.166,0.832089081
-0.1658,0.832089081
-0.1656,0.832089081
-0.1654,0.835829558
-0.1652,0.835829558
-0.165,0.835829558
-0.1648,0.835829558
-0.1646,0.835829558
-0.1644,0.832089081
-0.1642,0.835829558
-0.164,0.835829558
-0.1638,0.835829558
-0.1636,0.832089081
-0.1634,0.832089081
-0.1632,0.832089081
-0.163,0.835829558
-0.1628,0.835829558
-0.1626,0.835829558
-0.1624,0.832089081
-0.1622,0.835829558
-0.162,0.835829558
-0.1618,0.835829558
-0.1616,0.835829558
-0.1614,0.832089081
-0.1612,0.835829558
-0.161,0.835829558
-0.1608,0.835829558
-0.1606,0.832089081
-0.1604,0.832089081
-0.1602,0.835829558
-0.16,0.832089081
-0.1598,0.835829558
-0.1596,0.835829558
-0.1594,0.835829558
-0.1592,0.835829558
-0.159,0.832089081
-0.1588,0.832089081
-0.1586,0.835829558
-0.1584,0.835829558
-0.1582,0.835829558
-0.158,0.835829558
-0.1578,0.835829558
-0.1576,0.835829558
-0.1574,0.835829558
-0.1572,0.835829558
-0.157,0.835829558
-0.1568,0.835829558
-0.1566,0.835829558
-0.1564,0.835829558
-0.1562,0.835829558
-0.156,0.835829558
-0.1558,0.835829558
-0.1556,0.835829558
-0.1554,0.835829558
-0.1552,0.835829558
-0.155,0.835829558
-0.1548,0.835829558
-0.1546,0.835829558
-0.1544,0.835829558
-0.1542,0.835829558
-0.154,0.835829558
-0.1538,0.835829558
-0.1536,0.835829558
-0.1534,0.835829558
-0.1532,0.835829558
-0.153,0.832089081
-0.1528,0.835829558
-0.1526,0.835829558
-0.1524,0.835829558
-0.1522,0.835829558
-0.152,0.835829558
-0.1518,0.835829558
-0.1516,0.835829558
-0.1514,0.835829558
-0.1512,0.835829558
-0.151,0.832089081
-0.1508,0.835829558
-0.1506,0.835829558
-0.1504,0.835829558
-0.1502,0.835829558
-0.15,0.835829558
-0.1498,0.835829558
-0.1496,0.832089081
-0.1494,0.832089081
-0.1492,0.835829558
-0.149,0.835829558
-0.1488,0.835829558
-0.1486,0.835829558
-0.1484,0.835829558
-0.1482,0.835829558
-0.148,0.835829558
-0.1478,0.835829558
-0.1476,0.835829558
-0.1474,0.835829558
-0.1472,0.835829558
-0.147,0.835829558
-0.1468,0.835829558
-0.1466,0.835829558
-0.1464,0.835829558
-0.1462,0.835829558
-0.146,0.832089081
-0.1458,0.835829558
-0.1456,0.835829558
-0.1454,0.835829558
-0.1452,0.835829558
-0.145,0.835829558
-0.1448,0.835829558
-0.1446,0.832089081
-0.1444,0.835829558
-0.1442,0.835829558
-0.144,0.832089081
-0.1438,0.835829558
-0.1436,0.835829558
-0.1434,0.835829558
-0.1432,0.835829558
-0.143,0.835829558
-0.1428,0.835829558
-0.1426,0.835829558
-0.1424,0.835829558
-0.1422,0.835829558
-0.142,0.832089081
-0.1418,0.832089081
-0.1416,0.832089081
-0.1414,0.835829558
-0.1412,0.835829558
-0.141,0.835829558
-0.1408,0.835829558
-0.1406,0.835829558
-0.1404,0.835829558
-0.1402,0.835829558
-0.14,0.835829558
-0.1398,0.835829558
-0.1396,0.832089081
-0.1394,0.835829558
-0.1392,0.832089081
-0.139,0.835829558
-0.1388,0.835829558
-0.1386,0.835829558
-0.1384,0.835829558
-0.1382,0.835829558
-0.138,0.835829558
-0.1378,0.835829558
-0.1376,0.835829558
-0.1374,0.835829558
-0.1372,0.835829558
-0.137,0.835829558
-0.1368,0.835829558
-0.1366,0.835829558
-0.1364,0.835829558
-0.1362,0.835829558
-0.136,0.835829558
-0.1358,0.835829558
-0.1356,0.835829558
-0.1354,0.835829558
-0.1352,0.835829558
-0.135,0.832089081
-0.1348,0.835829558
-0.1346,0.835829558
-0.1344,0.835829558
-0.1342,0.835829558
-0.134,0.835829558
-0.1338,0.835829558
-0.1336,0.832089081
-0.1334,0.835829558
-0.1332,0.835829558
-0.133,0.835829558
-0.1328,0.835829558
-0.1326,0.835829558
-0.1324,0.835829558
-0.1322,0.835829558
-0.132,0.835829558
-0.1318,0.835829558
-0.1316,0.835829558
-0.1314,0.835829558
-0.1312,0.835829558
-0.131,0.835829558
-0.1308,0.835829558
-0.1306,0.835829558
-0.1304,0.835829558
-0.1302,0.835829558
-0.13,0.832089081
-0.1298,0.835829558
-0.1296,0.835829558
-0.1294,0.835829558
-0.1292,0.835829558
-0.129,0.835829558
-0.1288,0.835829558
-0.1286,0.832089081
-0.1284,0.835829558
-0.1282,0.835829558
-0.128,0.835829558
-0.1278,0.835829558
-0.1276,0.835829558
-0.1274,0.835829558
-0.1272,0.835829558
-0.127,0.835829558
-0.1268,0.835829558
-0.1266,0.835829558
-0.1264,0.835829558
-0.1262,0.835829558
-0.126,0.835829558
-0.1258,0.835829558
-0.1256,0.835829558
-0.1254,0.835829558
-0.1252,0.835829558
-0.125,0.835829558
-0.1248,0.835829558
-0.1246,0.835829558
-0.1244,0.835829558
-0.1242,0.835829558
-0.124,0.835829558
-0.1238,0.835829558
-0.1236,0.835829558
-0.1234,0.835829558
-0.1232,0.835829558
-0.123,0.835829558
-0.1228,0.835829558
-0.1226,0.835829558
-0.1224,0.835829558
-0.1222,0.835829558
-0.122,0.832089081
-0.1218,0.832089081
-0.1216,0.835829558
-0.1214,0.835829558
-0.1212,0.832089081
-0.121,0.835829558
-0.1208,0.835829558
-0.1206,0.835829558
-0.1204,0.835829558
-0.1202,0.835829558
-0.12,0.835829558
-0.1198,0.835829558
-0.1196,0.835829558
-0.1194,0.835829558
-0.1192,0.835829558
-0.119,0.835829558
-0.1188,0.835829558
-0.1186,0.835829558
-0.1184,0.835829558
-0.1182,0.835829558
-0.118,0.835829558
-0.1178,0.835829558
-0.1176,0.835829558
-0.1174,0.835829558
-0.1172,0.835829558
-0.117,0.835829558
-0.1168,0.835829558
-0.1166,0.835829558
-0.1164,0.835829558
-0.1162,0.835829558
-0.116,0.835829558
-0.1158,0.835829558
-0.1156,0.835829558
-0.1154,0.835829558
-0.1152,0.835829558
-0.115,0.835829558
-0.1148,0.835829558
-0.1146,0.835829558
-0.1144,0.835829558
-0.1142,0.835829558
-0.114,0.835829558
-0.1138,0.835829558
-0.1136,0.835829558
-0.1134,0.835829558
-0.1132,0.835829558
-0.113,0.835829558
-0.1128,0.832089081
-0.1126,0.835829558
-0.1124,0.835829558
-0.1122,0.835829558
-0.112,0.835829558
-0.1118,0.835829558
-0.1116,0.835829558
-0.1114,0.835829558
-0.1112,0.835829558
-0.111,0.835829558
-0.1108,0.835829558
-0.1106,0.835829558
-0.1104,0.835829558
-0.1102,0.835829558
-0.11,0.835829558
-0.1098,0.832089081
-0.1096,0.835829558
-0.1094,0.835829558
-0.1092,0.835829558
-0.109,0.832089081
-0.1088,0.835829558
-0.1086,0.835829558
-0.1084,0.835829558
-0.1082,0.835829558
-0.108,0.835829558
-0.1078,0.832089081
-0.1076,0.835829558
-0.1074,0.835829558
-0.1072,0.835829558
-0.107,0.835829558
-0.1068,0.835829558
-0.1066,0.835829558
-0.1064,0.835829558
-0.1062,0.835829558
-0.106,0.835829558
-0.1058,0.835829558
-0.1056,0.835829558
-0.1054,0.835829558
-0.1052,0.835829558
-0.105,0.835829558
-0.1048,0.835829558
-0.1046,0.835829558
-0.1044,0.835829558
-0.1042,0.835829558
-0.104,0.835829558
-0.1038,0.835829558
-0.1036,0.832089081
-0.1034,0.835829558
-0.1032,0.835829558
-0.103,0.835829558
-0.1028,0.835829558
-0.1026,0.835829558
-0.1024,0.835829558
-0.1022,0.835829558
-0.102,0.835829558
-0.1018,0.835829558
-0.1016,0.832089081
-0.1014,0.832089081
-0.1012,0.835829558
-0.101,0.835829558
-0.1008,0.832089081
-0.1006,0.832089081
-0.1004,0.835829558
-0.1002,0.835829558
-0.1,0.835829558
-0.0998,0.835829558
-0.0996,0.832089081
-0.0994,0.835829558
-0.0992,0.835829558
-0.099,0.835829558
-0.0988,0.835829558
-0.0986,0.835829558
-0.0984,0.835829558
-0.0982,0.835829558
-0.098,0.835829558
-0.0978,0.832089081
-0.0976,0.835829558
-0.0974,0.835829558
-0.0972,0.835829558
-0.097,0.835829558
-0.0968,0.832089081
-0.0966,0.835829558
-0.0964,0.835829558
-0.0962,0.835829558
-0.096,0.835829558
-0.0958,0.835829558
-0.0956,0.832089081
-0.0954,0.835829558
-0.0952,0.835829558
-0.095,0.835829558
-0.0948,0.832089081
-0.0946,0.835829558
-0.0944,0.835829558
-0.0942,0.835829558
-0.094,0.832089081
-0.0938,0.832089081
-0.0936,0.832089081
-0.0934,0.832089081
-0.0932,0.835829558
-0.093,0.835829558
-0.0928,0.835829558
-0.0926,0.835829558
-0.0924,0.835829558
-0.0922,0.835829558
-0.092,0.835829558
-0.0918,0.832089081
-0.0916,0.832089081
-0.0914,0.832089081
-0.0912,0.835829558
-0.091,0.835829558
-0.0908,0.835829558
-0.0906,0.832089081
-0.0904,0.835829558
-0.0902,0.835829558
-0.09,0.835829558
-0.0898,0.835829558
-0.0896,0.835829558
-0.0894,0.835829558
-0.0892,0.835829558
-0.089,0.832089081
-0.0888,0.835829558
-0.0886,0.835829558
-0.0884,0.835829558
-0.0882,0.835829558
-0.088,0.835829558
-0.0878,0.835829558
-0.0876,0.835829558
-0.0874,0.835829558
-0.0872,0.832089081
-0.087,0.835829558
-0.0868,0.835829558
-0.0866,0.835829558
-0.0864,0.835829558
-0.0862,0.832089081
-0.086,0.835829558
-0.0858,0.835829558
-0.0856,0.835829558
-0.0854,0.835829558
-0.0852,0.835829558
-0.085,0.835829558
-0.0848,0.835829558
-0.0846,0.835829558
-0.0844,0.835829558
-0.0842,0.835829558
-0.084,0.835829558
-0.0838,0.835829558
-0.0836,0.832089081
-0.0834,0.832089081
-0.0832,0.832089081
-0.083,0.832089081
-0.0828,0.832089081
-0.0826,0.832089081
-0.0824,0.835829558
-0.0822,0.832089081
-0.082,0.832089081
-0.0818,0.832089081
-0.0816,0.832089081
-0.0814,0.835829558
-0.0812,0.832089081
-0.081,0.832089081
-0.0808,0.832089081
-0.0806,0.835829558
-0.0804,0.832089081
-0.0802,0.835829558
-0.08,0.835829558
-0.0798,0.835829558
-0.0796,0.835829558
-0.0794,0.835829558
-0.0792,0.835829558
-0.079,0.835829558
-0.0788,0.832089081
-0.0786,0.835829558
-0.0784,0.835829558
-0.0782,0.835829558
-0.078,0.835829558
-0.0778,0.832089081
-0.0776,0.832089081
-0.0774,0.835829558
-0.0772,0.835829558
-0.077,0.835829558
-0.0768,0.835829558
-0.0766,0.835829558
-0.0764,0.835829558
-0.0762,0.835829558
-0.076,0.835829558
-0.0758,0.835829558
-0.0756,0.835829558
-0.0754,0.832089081
-0.0752,0.835829558
-0.075,0.835829558
-0.0748,0.835829558
-0.0746,0.835829558
-0.0744,0.832089081
-0.0742,0.835829558
-0.074,0.835829558
-0.0738,0.835829558
-0.0736,0.835829558
-0.0734,0.832089081
-0.0732,0.835829558
-0.073,0.832089081
-0.0728,0.832089081
-0.0726,0.832089081
-0.0724,0.835829558
-0.0722,0.835829558
-0.072,0.832089081
-0.0718,0.832089081
-0.0716,0.835829558
-0.0714,0.835829558
-0.0712,0.835829558
-0.071,0.835829558
-0.0708,0.835829558
-0.0706,0.835829558
-0.0704,0.835829558
-0.0702,0.832089081
-0.07,0.835829558
-0.0698,0.832089081
-0.0696,0.832089081
-0.0694,0.832089081
-0.0692,0.832089081
-0.069,0.835829558
-0.0688,0.835829558
-0.0686,0.835829558
-0.0684,0.835829558
-0.0682,0.835829558
-0.068,0.835829558
-0.0678,0.835829558
-0.0676,0.835829558
-0.0674,0.835829558
-0.0672,0.835829558
-0.067,0.835829558
-0.0668,0.832089081
-0.0666,0.835829558
-0.0664,0.835829558
-0.0662,0.835829558
-0.066,0.832089081
-0.0658,0.835829558
-0.0656,0.835829558
-0.0654,0.835829558
-0.0652,0.835829558
-0.065,0.832089081
-0.0648,0.835829558
-0.0646,0.835829558
-0.0644,0.835829558
-0.0642,0.835829558
-0.064,0.835829558
-0.0638,0.835829558
-0.0636,0.832089081
-0.0634,0.832089081
-0.0632,0.835829558
-0.063,0.832089081
-0.0628,0.835829558
-0.0626,0.832089081
-0.0624,0.835829558
-0.0622,0.835829558
-0.062,0.832089081
-0.0618,0.835829558
-0.0616,0.835829558
-0.0614,0.835829558
-0.0612,0.832089081
-0.061,0.832089081
-0.0608,0.835829558
-0.0606,0.832089081
-0.0604,0.835829558
-0.0602,0.835829558
-0.06,0.835829558
-0.0598,0.835829558
-0.0596,0.832089081
-0.0594,0.832089081
-0.0592,0.835829558
-0.059,0.835829558
-0.0588,0.835829558
-0.0586,0.835829558
-0.0584,0.835829558
-0.0582,0.835829558
-0.058,0.835829558
-0.0578,0.835829558
-0.0576,0.835829558
-0.0574,0.835829558
-0.0572,0.835829558
-0.057,0.835829558
-0.0568,0.835829558
-0.0566,0.835829558
-0.0564,0.835829558
-0.0562,0.835829558
-0.056,0.835829558
-0.0558,0.835829558
-0.0556,0.835829558
-0.0554,0.835829558
-0.0552,0.835829558
-0.055,0.835829558
-0.0548,0.835829558
-0.0546,0.835829558
-0.0544,0.835829558
-0.0542,0.835829558
-0.054,0.835829558
-0.0538,0.835829558
-0.0536,0.835829558
-0.0534,0.835829558
-0.0532,0.835829558
-0.053,0.835829558
-0.0528,0.835829558
-0.0526,0.835829558
-0.0524,0.835829558
-0.0522,0.835829558
-0.052,0.835829558
-0.0518,0.835829558
-0.0516,0.835829558
-0.0514,0.835829558
-0.0512,0.835829558
-0.051,0.835829558
-0.0508,0.835829558
-0.0506,0.835829558
-0.0504,0.835829558
-0.0502,0.835829558
-0.05,0.835829558
-0.0498,0.835829558
-0.0496,0.835829558
-0.0494,0.835829558
-0.0492,0.835829558
-0.049,0.835829558
-0.0488,0.835829558
-0.0486,0.835829558
-0.0484,0.835829558
-0.0482,0.835829558
-0.048,0.835829558
-0.0478,0.835829558
-0.0476,0.835829558
-0.0474,0.835829558
-0.0472,0.835829558
-0.047,0.835829558
-0.0468,0.835829558
-0.0466,0.835829558
-0.0464,0.835829558
-0.0462,0.835829558
-0.046,0.835829558
-0.0458,0.835829558
-0.0456,0.835829558
-0.0454,0.835829558
-0.0452,0.835829558
-0.045,0.835829558
-0.0448,0.835829558
-0.0446,0.835829558
-0.0444,0.835829558
-0.0442,0.835829558
-0.044,0.835829558
-0.0438,0.835829558
-0.0436,0.835829558
-0.0434,0.835829558
-0.0432,0.835829558
-0.043,0.835829558
-0.0428,0.835829558
-0.0426,0.832089081
-0.0424,0.835829558
-0.0422,0.835829558
-0.042,0.835829558
-0.0418,0.835829558
-0.0416,0.835829558
-0.0414,0.835829558
-0.0412,0.835829558
-0.041,0.835829558
-0.0408,0.835829558
-0.0406,0.835829558
-0.0404,0.835829558
-0.0402,0.835829558
-0.04,0.835829558
-0.0398,0.835829558
-0.0396,0.835829558
-0.0394,0.835829558
-0.0392,0.835829558
-0.039,0.835829558
-0.0388,0.835829558
-0.0386,0.835829558
-0.0384,0.835829558
-0.0382,0.835829558
-0.038,0.835829558
-0.0378,0.835829558
-0.0376,0.835829558
-0.0374,0.835829558
-0.0372,0.835829558
-0.037,0.835829558
-0.0368,0.835829558
-0.0366,0.835829558
-0.0364,0.835829558
-0.0362,0.835829558
-0.036,0.835829558
-0.0358,0.835829558
-0.0356,0.835829558
-0.0354,0.835829558
-0.0352,0.835829558
-0.035,0.835829558
-0.0348,0.835829558
-0.0346,0.835829558
-0.0344,0.835829558
-0.0342,0.835829558
-0.034,0.835829558
-0.0338,0.835829558
-0.0336,0.835829558
-0.0334,0.835829558
-0.0332,0.835829558
-0.033,0.835829558
-0.0328,0.835829558
-0.0326,0.835829558
-0.0324,0.835829558
-0.0322,0.835829558
-0.032,0.835829558
-0.0318,0.835829558
-0.0316,0.835829558
-0.0314,0.835829558
-0.0312,0.835829558
-0.031,0.835829558
-0.0308,0.835829558
-0.0306,0.835829558
-0.0304,0.835829558
-0.0302,0.835829558
-0.03,0.835829558
-0.0298,0.835829558
-0.0296,0.835829558
-0.0294,0.835829558
-0.0292,0.835829558
-0.029,0.835829558
-0.0288,0.835829558
-0.0286,0.835829558
-0.0284,0.835829558
-0.0282,0.835829558
-0.028,0.835829558
-0.0278,0.835829558
-0.0276,0.835829558
-0.0274,0.835829558
-0.0272,0.835829558
-0.027,0.835829558
-0.0268,0.835829558
-0.0266,0.835829558
-0.0264,0.835829558
-0.0262,0.835829558
-0.026,0.835829558
-0.0258,0.835829558
-0.0256,0.835829558
-0.0254,0.835829558
-0.0252,0.835829558
-0.025,0.835829558
-0.0248,0.835829558
-0.0246,0.835829558
-0.0244,0.835829558
-0.0242,0.835829558
-0.024,0.835829558
-0.0238,0.835829558
-0.0236,0.832089081
-0.0234,0.835829558
-0.0232,0.835829558
-0.023,0.835829558
-0.0228,0.835829558
-0.0226,0.835829558
-0.0224,0.835829558
-0.0222,0.835829558
-0.022,0.835829558
-0.0218,0.835829558
-0.0216,0.835829558
-0.0214,0.835829558
-0.0212,0.835829558
-0.021,0.835829558
-0.0208,0.835829558
-0.0206,0.835829558
-0.0204,0.835829558
-0.0202,0.835829558
-0.02,0.835829558
-0.0198,0.835829558
-0.0196,0.835829558
-0.0194,0.835829558
-0.0192,0.835829558
-0.019,0.835829558
-0.0188,0.835829558
-0.0186,0.835829558
-0.0184,0.835829558
-0.0182,0.835829558
-0.018,0.835829558
-0.0178,0.835829558
-0.0176,0.835829558
-0.0174,0.835829558
-0.0172,0.835829558
-0.017,0.835829558
-0.0168,0.835829558
-0.0166,0.835829558
-0.0164,0.835829558
-0.0162,0.835829558
-0.016,0.835829558
-0.0158,0.835829558
-0.0156,0.835829558
-0.0154,0.835829558
-0.0152,0.835829558
-0.015,0.835829558
-0.0148,0.835829558
-0.0146,0.835829558
-0.0144,0.835829558
-0.0142,0.835829558
-0.014,0.835829558
-0.0138,0.835829558
-0.0136,0.835829558
-0.0134,0.835829558
-0.0132,0.835829558
-0.013,0.835829558
-0.0128,0.835829558
-0.0126,0.835829558
-0.0124,0.835829558
-0.0122,0.835829558
-0.012,0.835829558
-0.0118,0.835829558
-0.0116,0.835829558
-0.0114,0.835829558
-0.0112,0.835829558
-0.011,0.835829558
-0.0108,0.835829558
-0.0106,0.835829558
-0.0104,0.835829558
-0.0102,0.835829558
-0.01,0.835829558
-0.0098,0.835829558
-0.0096,0.835829558
-0.0094,0.835829558
-0.0092,0.835829558
-0.009,0.835829558
-0.0088,0.835829558
-0.0086,0.835829558
-0.0084,0.835829558
-0.0082,0.835829558
-0.008,0.835829558
-0.0078,0.835829558
-0.0076,0.835829558
-0.0074,0.835829558
-0.0072,0.835829558
-0.007,0.835829558
-0.0068,0.835829558
-0.0066,0.835829558
-0.0064,0.835829558
-0.0062,0.835829558
-0.006,0.835829558
-0.0058,0.835829558
-0.0056,0.835829558
-0.0054,0.835829558
-0.0052,0.835829558
-0.005,0.835829558
-0.0048,0.835829558
-0.0046,0.835829558
-0.0044,0.835829558
-0.0042,0.835829558
-0.004,0.835829558
-0.0038,0.835829558
-0.0036,0.835829558
-0.0034,0.835829558
-0.0032,0.835829558
-0.003,0.835829558
-0.0028,0.835829558
-0.0026,0.835829558
-0.0024,0.835829558
-0.0022,0.835829558
-0.002,0.835829558
-0.0018,0.835829558
-0.0016,0.835829558
-0.0014,0.835829558
-0.0012,0.835829558
-0.001,0.835829558
-0.0008,0.835829558
-0.0006,0.835829558
-0.0004,0.835829558
-0.0002,0.835829558
0,0.835829558
0.0002,0.835829558
0.0004,0.835829558
0.0006,0.835829558
0.0008,0.835829558
0.001,0.835829558
0.0012,0.835829558
0.0014,0.835829558
0.0016,0.835829558
0.0018,0.835829558
0.002,0.835829558
0.0022,0.835829558
0.0024,0.835829558
0.0026,0.835829558
0.0028,0.835829558
0.003,0.835829558
0.0032,0.835829558
0.0034,0.835829558
0.0036,0.835829558
0.0038,0.835829558
0.004,0.835829558
0.0042,0.835829558
0.0044,0.835829558
0.0046,0.835829558
0.0048,0.835829558
0.005,0.835829558
0.0052,0.835829558
0.0054,0.835829558
0.0056,0.835829558
0.0058,0.835829558
0.006,0.835829558
0.0062,0.835829558
0.0064,0.835829558
0.0066,0.835829558
0.0068,0.835829558
0.007,0.835829558
0.0072,0.835829558
0.0074,0.835829558
0.0076,0.835829558
0.0078,0.835829558
0.008,0.835829558
0.0082,0.835829558
0.0084,0.835829558
0.0086,0.835829558
0.0088,0.835829558
0.009,0.835829558
0.0092,0.835829558
0.0094,0.835829558
0.0096,0.835829558
0.0098,0.835829558
0.01,0.832089081
0.0102,0.835829558
0.0104,0.835829558
0.0106,0.835829558
0.0108,0.835829558
0.011,0.835829558
0.0112,0.835829558
0.0114,0.835829558
0.0116,0.835829558
0.0118,0.832089081
0.012,0.835829558
0.0122,0.835829558
0.0124,0.835829558
0.0126,0.835829558
0.0128,0.835829558
0.013,0.835829558
0.0132,0.835829558
0.0134,0.832089081
0.0136,0.835829558
0.0138,0.835829558
0.014,0.832089081
0.0142,0.835829558
0.0144,0.835829558
0.0146,0.835829558
0.0148,0.835829558
0.015,0.835829558
0.0152,0.835829558
0.0154,0.832089081
0.0156,0.835829558
0.0158,0.835829558
0.016,0.832089081
0.0162,0.832089081
0.0164,0.832089081
0.0166,0.835829558
0.0168,0.832089081
0.017,0.835829558
0.0172,0.835829558
0.0174,0.835829558
0.0176,0.835829558
0.0178,0.835829558
0.018,0.835829558
0.0182,0.835829558
0.0184,0.832089081
0.0186,0.835829558
0.0188,0.835829558
0.019,0.835829558
0.0192,0.835829558
0.0194,0.835829558
0.0196,0.835829558
0.0198,0.835829558
0.02,0.835829558
0.0202,0.835829558
0.0204,0.835829558
0.0206,0.832089081
0.0208,0.835829558
0.021,0.835829558
0.0212,0.835829558
0.0214,0.835829558
0.0216,0.835829558
0.0218,0.835829558
0.022,0.835829558
0.0222,0.835829558
0.0224,0.835829558
0.0226,0.835829558
0.0228,0.835829558
0.023,0.835829558
0.0232,0.835829558
0.0234,0.835829558
0.0236,0.835829558
0.0238,0.835829558
0.024,0.835829558
0.0242,0.835829558
0.0244,0.835829558
0.0246,0.835829558
0.0248,0.835829558
0.025,0.835829558
0.0252,0.835829558
0.0254,0.835829558
0.0256,0.835829558
0.0258,0.835829558
0.026,0.832089081
0.0262,0.832089081
0.0264,0.835829558
0.0266,0.835829558
0.0268,0.835829558
0.027,0.835829558
0.0272,0.835829558
0.0274,0.835829558
0.0276,0.835829558
0.0278,0.835829558
0.028,0.835829558
0.0282,0.835829558
0.0284,0.835829558
0.0286,0.832089081
0.0288,0.835829558
0.029,0.835829558
0.0292,0.835829558
0.0294,0.835829558
0.0296,0.835829558
0.0298,0.835829558
0.03,0.835829558
0.0302,0.835829558
0.0304,0.835829558
0.0306,0.835829558
0.0308,0.835829558
0.031,0.832089081
0.0312,0.832089081
0.0314,0.835829558
0.0316,0.832089081
0.0318,0.835829558
0.032,0.835829558
0.0322,0.835829558
0.0324,0.835829558
0.0326,0.835829558
0.0328,0.835829558
0.033,0.835829558
0.0332,0.835829558
0.0334,0.835829558
0.0336,0.835829558
0.0338,0.835829558
0.034,0.835829558
0.0342,0.835829558
0.0344,0.835829558
0.0346,0.835829558
0.0348,0.835829558
0.035,0.835829558
0.0352,0.832089081
0.0354,0.835829558
0.0356,0.835829558
0.0358,0.835829558
0.036,0.835829558
0.0362,0.835829558
0.0364,0.835829558
0.0366,0.835829558
0.0368,0.835829558
0.037,0.835829558
0.0372,0.835829558
0.0374,0.835829558
0.0376,0.835829558
0.0378,0.835829558
0.038,0.835829558
0.0382,0.835829558
0.0384,0.835829558
0.0386,0.835829558
0.0388,0.832089081
0.039,0.835829558
0.0392,0.835829558
0.0394,0.835829558
0.0396,0.835829558
0.0398,0.835829558
0.04,0.835829558
0.0402,0.835829558
0.0404,0.835829558
0.0406,0.835829558
0.0408,0.835829558
0.041,0.835829558
0.0412,0.835829558
0.0414,0.835829558
0.0416,0.835829558
0.0418,0.835829558
0.042,0.835829558
0.0422,0.835829558
0.0424,0.835829558
0.0426,0.835829558
0.0428,0.835829558
0.043,0.835829558
0.0432,0.835829558
0.0434,0.835829558
0.0436,0.835829558
0.0438,0.835829558
0.044,0.835829558
0.0442,0.835829558
0.0444,0.835829558
0.0446,0.835829558
0.0448,0.835829558
0.045,0.835829558
0.0452,0.835829558
0.0454,0.835829558
0.0456,0.835829558
0.0458,0.835829558
0.046,0.835829558
0.0462,0.835829558
0.0464,0.835829558
0.0466,0.835829558
0.0468,0.835829558
0.047,0.835829558
0.0472,0.835829558
0.0474,0.835829558
0.0476,0.835829558
0.0478,0.835829558
0.048,0.835829558
0.0482,0.835829558
0.0484,0.835829558
0.0486,0.835829558
0.0488,0.835829558
0.049,0.835829558
0.0492,0.835829558
0.0494,0.835829558
0.0496,0.835829558
0.0498,0.835829558
0.05,0.835829558
0.0502,0.835829558
0.0504,0.835829558
0.0506,0.835829558
0.0508,0.835829558
0.051,0.832089081
0.0512,0.835829558
0.0514,0.835829558
0.0516,0.835829558
0.0518,0.835829558
0.052,0.835829558
0.0522,0.835829558
0.0524,0.835829558
0.0526,0.835829558
0.0528,0.835829558
0.053,0.835829558
0.0532,0.835829558
0.0534,0.835829558
0.0536,0.835829558
0.0538,0.835829558
0.054,0.835829558
0.0542,0.835829558
0.0544,0.835829558
0.0546,0.835829558
0.0548,0.835829558
0.055,0.835829558
0.0552,0.835829558
0.0554,0.835829558
0.0556,0.835829558
0.0558,0.835829558
0.056,0.835829558
0.0562,0.835829558
0.0564,0.832089081
0.0566,0.835829558
0.0568,0.835829558
0.057,0.832089081
0.0572,0.835829558
0.0574,0.835829558
0.0576,0.835829558
0.0578,0.835829558
0.058,0.832089081
0.0582,0.835829558
0.0584,0.835829558
0.0586,0.835829558
0.0588,0.835829558
0.059,0.832089081
0.0592,0.832089081
0.0594,0.835829558
0.0596,0.835829558
0.0598,0.835829558
0.06,0.835829558
0.0602,0.832089081
0.0604,0.835829558
0.0606,0.832089081
0.0608,0.835829558
0.061,0.835829558
0.0612,0.835829558
0.0614,0.835829558
0.0616,0.835829558
0.0618,0.835829558
0.062,0.835829558
0.0622,0.835829558
0.0624,0.835829558
0.0626,0.835829558
0.0628,0.835829558
0.063,0.835829558
0.0632,0.835829558
0.0634,0.835829558
0.0636,0.835829558
0.0638,0.835829558
0.064,0.835829558
0.0642,0.835829558
0.0644,0.835829558
0.0646,0.835829558
0.0648,0.835829558
0.065,0.835829558
0.0652,0.835829558
0.0654,0.835829558
0.0656,0.835829558
0.0658,0.835829558
0.066,0.835829558
0.0662,0.835829558
0.0664,0.835829558
0.0666,0.832089081
0.0668,0.835829558
0.067,0.835829558
0.0672,0.835829558
0.0674,0.835829558
0.0676,0.835829558
0.0678,0.835829558
0.068,0.835829558
0.0682,0.835829558
0.0684,0.835829558
0.0686,0.835829558
0.0688,0.835829558
0.069,0.835829558
0.0692,0.835829558
0.0694,0.835829558
0.0696,0.835829558
0.0698,0.835829558
0.07,0.835829558
0.0702,0.835829558
0.0704,0.835829558
0.0706,0.835829558
0.0708,0.835829558
0.071,0.835829558
0.0712,0.835829558
0.0714,0.835829558
0.0716,0.835829558
0.0718,0.835829558
0.072,0.835829558
0.0722,0.835829558
0.0724,0.835829558
0.0726,0.835829558
0.0728,0.835829558
0.073,0.835829558
0.0732,0.835829558
0.0734,0.835829558
0.0736,0.835829558
0.0738,0.835829558
0.074,0.832089081
0.0742,0.835829558
0.0744,0.835829558
0.0746,0.835829558
0.0748,0.835829558
0.075,0.835829558
0.0752,0.832089081
0.0754,0.835829558
0.0756,0.835829558
0.0758,0.832089081
0.076,0.835829558
0.0762,0.835829558
0.0764,0.835829558
0.0766,0.835829558
0.0768,0.835829558
0.077,0.835829558
0.0772,0.835829558
0.0774,0.835829558
0.0776,0.835829558
0.0778,0.835829558
0.078,0.835829558
0.0782,0.835829558
0.0784,0.835829558
0.0786,0.835829558
0.0788,0.832089081
0.079,0.835829558
0.0792,0.832089081
0.0794,0.835829558
0.0796,0.835829558
0.0798,0.832089081
0.08,0.835829558
0.0802,0.835829558
0.0804,0.835829558
0.0806,0.835829558
0.0808,0.835829558
0.081,0.835829558
0.0812,0.835829558
0.0814,0.835829558
0.0816,0.835829558
0.0818,0.835829558
0.082,0.835829558
0.0822,0.835829558
0.0824,0.835829558
0.0826,0.835829558
0.0828,0.835829558
0.083,0.835829558
0.0832,0.835829558
0.0834,0.835829558
0.0836,0.832089081
0.0838,0.835829558
0.084,0.835829558
0.0842,0.835829558
0.0844,0.835829558
0.0846,0.832089081
0.0848,0.832089081
0.085,0.835829558
0.0852,0.832089081
0.0854,0.832089081
0.0856,0.835829558
0.0858,0.835829558
0.086,0.835829558
0.0862,0.832089081
0.0864,0.832089081
0.0866,0.835829558
0.0868,0.835829558
0.087,0.835829558
0.0872,0.835829558
0.0874,0.835829558
0.0876,0.835829558
0.0878,0.835829558
0.088,0.835829558
0.0882,0.835829558
0.0884,0.835829558
0.0886,0.835829558
0.0888,0.835829558
0.089,0.835829558
0.0892,0.835829558
0.0894,0.835829558
0.0896,0.835829558
0.0898,0.835829558
0.09,0.835829558
0.0902,0.835829558
0.0904,0.835829558
0.0906,0.835829558
0.0908,0.835829558
0.091,0.835829558
0.0912,0.835829558
0.0914,0.835829558
0.0916,0.835829558
0.0918,0.835829558
0.092,0.835829558
0.0922,0.832089081
0.0924,0.835829558
0.0926,0.832089081
0.0928,0.835829558
0.093,0.832089081
0.0932,0.835829558
0.0934,0.835829558
0.0936,0.832089081
0.0938,0.832089081
0.094,0.835829558
0.0942,0.835829558
0.0944,0.835829558
0.0946,0.832089081
0.0948,0.835829558
0.095,0.832089081
0.0952,0.835829558
0.0954,0.835829558
0.0956,0.835829558
0.0958,0.835829558
0.096,0.835829558
0.0962,0.835829558
0.0964,0.832089081
0.0966,0.835829558
0.0968,0.832089081
0.097,0.835829558
0.0972,0.835829558
0.0974,0.835829558
0.0976,0.835829558
0.0978,0.835829558
0.098,0.832089081
0.0982,0.832089081
0.0984,0.835829558
0.0986,0.835829558
0.0988,0.835829558
0.099,0.835829558
0.0992,0.835829558
0.0994,0.835829558
0.0996,0.835829558
0.0998,0.835829558
0.1,0.835829558
0.1002,0.835829558
0.1004,0.835829558
0.1006,0.835829558
0.1008,0.832089081
0.101,0.835829558
0.1012,0.832089081
0.1014,0.832089081
0.1016,0.832089081
0.1018,0.835829558
0.102,0.835829558
0.1022,0.835829558
0.1024,0.835829558
0.1026,0.835829558
0.1028,0.835829558
0.103,0.835829558
0.1032,0.835829558
0.1034,0.835829558
0.1036,0.835829558
0.1038,0.835829558
0.104,0.835829558
0.1042,0.835829558
0.1044,0.835829558
0.1046,0.835829558
0.1048,0.832089081
0.105,0.832089081
0.1052,0.832089081
0.1054,0.832089081
0.1056,0.835829558
0.1058,0.835829558
0.106,0.835829558
0.1062,0.835829558
0.1064,0.835829558
0.1066,0.835829558
0.1068,0.835829558
0.107,0.835829558
0.1072,0.832089081
0.1074,0.835829558
0.1076,0.835829558
0.1078,0.835829558
0.108,0.835829558
0.1082,0.835829558
0.1084,0.835829558
0.1086,0.835829558
0.1088,0.835829558
0.109,0.835829558
0.1092,0.835829558
0.1094,0.835829558
0.1096,0.835829558
0.1098,0.835829558
0.11,0.835829558
0.1102,0.835829558
0.1104,0.835829558
0.1106,0.835829558
0.1108,0.835829558
0.111,0.835829558
0.1112,0.835829558
0.1114,0.835829558
0.1116,0.832089081
0.1118,0.835829558
0.112,0.835829558
0.1122,0.835829558
0.1124,0.835829558
0.1126,0.835829558
0.1128,0.835829558
0.113,0.835829558
0.1132,0.835829558
0.1134,0.835829558
0.1136,0.835829558
0.1138,0.835829558
0.114,0.835829558
0.1142,0.835829558
0.1144,0.835829558
0.1146,0.835829558
0.1148,0.835829558
0.115,0.835829558
0.1152,0.835829558
0.1154,0.835829558
0.1156,0.835829558
0.1158,0.835829558
0.116,0.835829558
0.1162,0.832089081
0.1164,0.835829558
0.1166,0.835829558
0.1168,0.835829558
0.117,0.835829558
0.1172,0.835829558
0.1174,0.835829558
0.1176,0.835829558
0.1178,0.832089081
0.118,0.835829558
0.1182,0.835829558
0.1184,0.835829558
0.1186,0.835829558
0.1188,0.832089081
0.119,0.835829558
0.1192,0.835829558
0.1194,0.835829558
0.1196,0.835829558
0.1198,0.835829558
0.12,0.835829558
0.1202,0.835829558
0.1204,0.835829558
0.1206,0.832089081
0.1208,0.832089081
0.121,0.835829558
0.1212,0.835829558
0.1214,0.832089081
0.1216,0.835829558
0.1218,0.835829558
0.122,0.835829558
0.1222,0.835829558
0.1224,0.835829558
0.1226,0.835829558
0.1228,0.835829558
0.123,0.835829558
0.1232,0.835829558
0.1234,0.835829558
0.1236,0.835829558
0.1238,0.835829558
0.124,0.835829558
0.1242,0.835829558
0.1244,0.835829558
0.1246,0.835829558
0.1248,0.835829558
0.125,0.835829558
0.1252,0.835829558
0.1254,0.835829558
0.1256,0.835829558
0.1258,0.835829558
0.126,0.835829558
0.1262,0.835829558
0.1264,0.835829558
0.1266,0.835829558
0.1268,0.832089081
0.127,0.835829558
0.1272,0.835829558
0.1274,0.835829558
0.1276,0.835829558
0.1278,0.835829558
0.128,0.835829558
0.1282,0.835829558
0.1284,0.835829558
0.1286,0.835829558
0.1288,0.835829558
0.129,0.835829558
0.1292,0.835829558
0.1294,0.835829558
0.1296,0.835829558
0.1298,0.835829558
0.13,0.835829558
0.1302,0.835829558
0.1304,0.835829558
0.1306,0.835829558
0.1308,0.835829558
0.131,0.832089081
0.1312,0.835829558
0.1314,0.835829558
0.1316,0.835829558
0.1318,0.835829558
0.132,0.835829558
0.1322,0.835829558
0.1324,0.835829558
0.1326,0.835829558
0.1328,0.835829558
0.133,0.832089081
0.1332,0.835829558
0.1334,0.832089081
0.1336,0.832089081
0.1338,0.835829558
0.134,0.832089081
0.1342,0.835829558
0.1344,0.835829558
0.1346,0.835829558
0.1348,0.835829558
0.135,0.835829558
0.1352,0.835829558
0.1354,0.835829558
0.1356,0.835829558
0.1358,0.835829558
0.136,0.835829558
0.1362,0.835829558
0.1364,0.835829558
0.1366,0.835829558
0.1368,0.835829558
0.137,0.835829558
0.1372,0.835829558
0.1374,0.835829558
0.1376,0.835829558
0.1378,0.835829558
0.138,0.835829558
0.1382,0.835829558
0.1384,0.835829558
0.1386,0.835829558
0.1388,0.835829558
0.139,0.835829558
0.1392,0.835829558
0.1394,0.835829558
0.1396,0.835829558
0.1398,0.835829558
0.14,0.832089081
0.1402,0.835829558
0.1404,0.835829558
0.1406,0.835829558
0.1408,0.835829558
0.141,0.835829558
0.1412,0.835829558
0.1414,0.835829558
0.1416,0.835829558
0.1418,0.835829558
0.142,0.835829558
0.1422,0.835829558
0.1424,0.835829558
0.1426,0.835829558
0.1428,0.835829558
0.143,0.835829558
0.1432,0.835829558
0.1434,0.835829558
0.1436,0.835829558
0.1438,0.835829558
0.144,0.835829558
0.1442,0.835829558
0.1444,0.835829558
0.1446,0.835829558
0.1448,0.835829558
0.145,0.835829558
0.1452,0.835829558
0.1454,0.835829558
0.1456,0.835829558
0.1458,0.835829558
0.146,0.835829558
0.1462,0.835829558
0.1464,0.835829558
0.1466,0.832089081
0.1468,0.832089081
0.147,0.835829558
0.1472,0.835829558
0.1474,0.835829558
0.1476,0.832089081
0.1478,0.835829558
0.148,0.835829558
0.1482,0.835829558
0.1484,0.835829558
0.1486,0.835829558
0.1488,0.835829558
0.149,0.835829558
0.1492,0.835829558
0.1494,0.835829558
0.1496,0.835829558
0.1498,0.835829558
0.15,0.835829558
0.1502,0.835829558
0.1504,0.835829558
0.1506,0.835829558
0.1508,0.835829558
0.151,0.835829558
0.1512,0.835829558
0.1514,0.835829558
0.1516,0.835829558
0.1518,0.835829558
0.152,0.832089081
0.1522,0.835829558
0.1524,0.835829558
0.1526,0.832089081
0.1528,0.835829558
0.153,0.835829558
0.1532,0.835829558
0.1534,0.835829558
0.1536,0.832089081
0.1538,0.832089081
0.154,0.835829558
0.1542,0.835829558
0.1544,0.835829558
0.1546,0.835829558
0.1548,0.835829558
0.155,0.832089081
0.1552,0.835829558
0.1554,0.835829558
0.1556,0.835829558
0.1558,0.832089081
0.156,0.832089081
0.1562,0.835829558
0.1564,0.835829558
0.1566,0.835829558
0.1568,0.835829558
0.157,0.835829558
0.1572,0.835829558
0.1574,0.835829558
0.1576,0.835829558
0.1578,0.832089081
0.158,0.835829558
0.1582,0.835829558
0.1584,0.835829558
0.1586,0.835829558
0.1588,0.835829558
0.159,0.835829558
0.1592,0.835829558
0.1594,0.835829558
0.1596,0.835829558
0.1598,0.835829558
0.16,0.835829558
0.1602,0.835829558
0.1604,0.835829558
0.1606,0.835829558
0.1608,0.835829558
0.161,0.835829558
0.1612,0.835829558
0.1614,0.835829558
0.1616,0.835829558
0.1618,0.835829558
0.162,0.835829558
0.1622,0.835829558
0.1624,0.835829558
0.1626,0.835829558
0.1628,0.835829558
0.163,0.835829558
0.1632,0.835829558
0.1634,0.835829558
0.1636,0.835829558
0.1638,0.835829558
0.164,0.835829558
0.1642,0.835829558
0.1644,0.835829558
0.1646,0.835829558
0.1648,0.835829558
0.165,0.835829558
0.1652,0.835829558
0.1654,0.835829558
0.1656,0.835829558
0.1658,0.835829558
0.166,0.835829558
0.1662,0.835829558
0.1664,0.835829558
0.1666,0.835829558
0.1668,0.835829558
0.167,0.835829558
0.1672,0.835829558
0.1674,0.832089081
0.1676,0.835829558
0.1678,0.835829558
0.168,0.835829558
0.1682,0.835829558
0.1684,0.835829558
0.1686,0.835829558
0.1688,0.835829558
0.169,0.835829558
0.1692,0.835829558
0.1694,0.835829558
0.1696,0.835829558
0.1698,0.835829558
0.17,0.835829558
0.1702,0.835829558
0.1704,0.835829558
0.1706,0.835829558
0.1708,0.835829558
0.171,0.835829558
0.1712,0.835829558
0.1714,0.835829558
0.1716,0.835829558
0.1718,0.835829558
0.172,0.835829558
0.1722,0.835829558
0.1724,0.835829558
0.1726,0.832089081
0.1728,0.835829558
0.173,0.835829558
0.1732,0.832089081
0.1734,0.835829558
0.1736,0.835829558
0.1738,0.835829558
0.174,0.835829558
0.1742,0.835829558
0.1744,0.835829558
0.1746,0.835829558
0.1748,0.832089081
0.175,0.835829558
0.1752,0.832089081
0.1754,0.835829558
0.1756,0.835829558
0.1758,0.835829558
0.176,0.832089081
0.1762,0.832089081
0.1764,0.835829558
0.1766,0.835829558
0.1768,0.835829558
0.177,0.832089081
0.1772,0.835829558
0.1774,0.832089081
0.1776,0.835829558
0.1778,0.832089081
0.178,0.835829558
0.1782,0.835829558
0.1784,0.835829558
0.1786,0.835829558
0.1788,0.835829558
0.179,0.835829558
0.1792,0.835829558
0.1794,0.835829558
0.1796,0.835829558
0.1798,0.835829558
0.18,0.835829558
0.1802,0.835829558
0.1804,0.835829558
0.1806,0.835829558
0.1808,0.835829558
0.181,0.835829558
0.1812,0.835829558
0.1814,0.835829558
0.1816,0.835829558
0.1818,0.835829558
0.182,0.835829558
0.1822,0.835829558
0.1824,0.835829558
0.1826,0.835829558
0.1828,0.835829558
0.183,0.835829558
0.1832,0.835829558
0.1834,0.835829558
0.1836,0.835829558
0.1838,0.835829558
0.184,0.835829558
0.1842,0.835829558
0.1844,0.835829558
0.1846,0.835829558
0.1848,0.835829558
0.185,0.835829558
0.1852,0.835829558
0.1854,0.835829558
0.1856,0.835829558
0.1858,0.835829558
0.186,0.835829558
0.1862,0.835829558
0.1864,0.835829558
0.1866,0.832089081
0.1868,0.835829558
0.187,0.835829558
0.1872,0.835829558
0.1874,0.835829558
0.1876,0.835829558
0.1878,0.835829558
0.188,0.835829558
0.1882,0.835829558
0.1884,0.835829558
0.1886,0.835829558
0.1888,0.835829558
0.189,0.835829558
0.1892,0.835829558
0.1894,0.835829558
0.1896,0.835829558
0.1898,0.835829558
0.19,0.835829558
0.1902,0.835829558
0.1904,0.835829558
0.1906,0.835829558
0.1908,0.835829558
0.191,0.835829558
0.1912,0.835829558
0.1914,0.835829558
0.1916,0.835829558
0.1918,0.832089081
0.192,0.835829558
0.1922,0.835829558
0.1924,0.835829558
0.1926,0.835829558
0.1928,0.835829558
0.193,0.835829558
0.1932,0.835829558
0.1934,0.835829558
0.1936,0.832089081
0.1938,0.835829558
0.194,0.835829558
0.1942,0.835829558
0.1944,0.835829558
0.1946,0.835829558
0.1948,0.835829558
0.195,0.835829558
0.1952,0.835829558
0.1954,0.835829558
0.1956,0.835829558
0.1958,0.835829558
0.196,0.835829558
0.1962,0.835829558
0.1964,0.835829558
0.1966,0.835829558
0.1968,0.835829558
0.197,0.835829558
0.1972,0.835829558
0.1974,0.835829558
0.1976,0.835829558
0.1978,0.835829558
0.198,0.835829558
0.1982,0.835829558
0.1984,0.835829558
0.1986,0.835829558
0.1988,0.835829558
0.199,0.835829558
0.1992,0.835829558
0.1994,0.835829558
0.1996,0.835829558
0.1998,0.835829558
0.2,0.835829558
0.2002,0.835829558
0.2004,0.835829558
0.2006,0.835829558
0.2008,0.835829558
0.201,0.835829558
0.2012,0.835829558
0.2014,0.835829558
0.2016,0.835829558
0.2018,0.835829558
0.202,0.835829558
0.2022,0.835829558
0.2024,0.835829558
0.2026,0.835829558
0.2028,0.835829558
0.203,0.835829558
0.2032,0.835829558
0.2034,0.835829558
0.2036,0.835829558
0.2038,0.835829558
0.204,0.835829558
0.2042,0.835829558
0.2044,0.835829558
0.2046,0.835829558
0.2048,0.835829558
0.205,0.835829558
0.2052,0.835829558
0.2054,0.835829558
0.2056,0.835829558
0.2058,0.835829558
0.206,0.835829558
0.2062,0.835829558
0.2064,0.835829558
0.2066,0.832089081
0.2068,0.835829558
0.207,0.835829558
0.2072,0.832089081
0.2074,0.835829558
0.2076,0.835829558
0.2078,0.832089081
0.208,0.835829558
0.2082,0.832089081
0.2084,0.835829558
0.2086,0.832089081
0.2088,0.835829558
0.209,0.832089081
0.2092,0.832089081
0.2094,0.832089081
0.2096,0.832089081
0.2098,0.832089081
0.21,0.832089081
0.2102,0.835829558
0.2104,0.835829558
0.2106,0.835829558
0.2108,0.832089081
0.211,0.835829558
0.2112,0.835829558
0.2114,0.832089081
0.2116,0.835829558
0.2118,0.835829558
0.212,0.832089081
0.2122,0.835829558
0.2124,0.835829558
0.2126,0.835829558
0.2128,0.832089081
0.213,0.832089081
0.2132,0.835829558
0.2134,0.832089081
0.2136,0.835829558
0.2138,0.835829558
0.214,0.835829558
0.2142,0.835829558
0.2144,0.835829558
0.2146,0.835829558
0.2148,0.835829558
0.215,0.835829558
0.2152,0.835829558
0.2154,0.835829558
0.2156,0.835829558
0.2158,0.835829558
0.216,0.835829558
0.2162,0.835829558
0.2164,0.835829558
0.2166,0.835829558
0.2168,0.835829558
0.217,0.832089081
0.2172,0.835829558
0.2174,0.835829558
0.2176,0.835829558
0.2178,0.835829558
0.218,0.835829558
0.2182,0.835829558
0.2184,0.835829558
0.2186,0.835829558
0.2188,0.832089081
0.219,0.832089081
0.2192,0.835829558
0.2194,0.832089081
0.2196,0.832089081
0.2198,0.832089081
0.22,0.832089081
0.2202,0.832089081
0.2204,0.835829558
0.2206,0.835829558
0.2208,0.832089081
0.221,0.832089081
0.2212,0.835829558
0.2214,0.832089081
0.2216,0.835829558
0.2218,0.835829558
0.222,0.832089081
0.2222,0.832089081
0.2224,0.832089081
0.2226,0.832089081
0.2228,0.835829558
0.223,0.835829558
0.2232,0.832089081
0.2234,0.835829558
0.2236,0.832089081
0.2238,0.832089081
0.224,0.835829558
0.2242,0.835829558
0.2244,0.832089081
0.2246,0.835829558
0.2248,0.835829558
0.225,0.835829558
0.2252,0.835829558
0.2254,0.835829558
0.2256,0.835829558
0.2258,0.835829558
0.226,0.835829558
0.2262,0.835829558
0.2264,0.832089081
0.2266,0.835829558
0.2268,0.835829558
0.227,0.832089081
0.2272,0.835829558
0.2274,0.835829558
0.2276,0.835829558
0.2278,0.835829558
0.228,0.835829558
0.2282,0.835829558
0.2284,0.835829558
0.2286,0.835829558
0.2288,0.835829558
0.229,0.835829558
0.2292,0.835829558
0.2294,0.835829558
0.2296,0.835829558
0.2298,0.835829558
0.23,0.835829558
0.2302,0.835829558
0.2304,0.835829558
0.2306,0.835829558
0.2308,0.832089081
0.231,0.835829558
0.2312,0.835829558
0.2314,0.835829558
0.2316,0.835829558
0.2318,0.835829558
0.232,0.835829558
0.2322,0.835829558
0.2324,0.835829558
0.2326,0.835829558
0.2328,0.835829558
0.233,0.835829558
0.2332,0.835829558
0.2334,0.835829558
0.2336,0.835829558
0.2338,0.835829558
0.234,0.835829558
0.2342,0.835829558
0.2344,0.835829558
0.2346,0.835829558
0.2348,0.835829558
0.235,0.835829558
0.2352,0.835829558
0.2354,0.835829558
0.2356,0.832089081
0.2358,0.835829558
0.236,0.835829558
0.2362,0.835829558
0.2364,0.835829558
0.2366,0.835829558
0.2368,0.835829558
0.237,0.835829558
0.2372,0.835829558
0.2374,0.835829558
0.2376,0.832089081
0.2378,0.835829558
0.238,0.835829558
0.2382,0.835829558
0.2384,0.835829558
0.2386,0.835829558
0.2388,0.832089081
0.239,0.832089081
0.2392,0.835829558
0.2394,0.835829558
0.2396,0.835829558
0.2398,0.835829558
0.24,0.835829558
0.2402,0.835829558
0.2404,0.835829558
0.2406,0.832089081
0.2408,0.832089081
0.241,0.835829558
0.2412,0.835829558
0.2414,0.835829558
0.2416,0.832089081
0.2418,0.835829558
0.242,0.835829558
0.2422,0.835829558
0.2424,0.835829558
0.2426,0.835829558
0.2428,0.835829558
0.243,0.835829558
0.2432,0.835829558
0.2434,0.835829558
0.2436,0.835829558
0.2438,0.835829558
0.244,0.835829558
0.2442,0.832089081
0.2444,0.835829558
0.2446,0.835829558
0.2448,0.835829558
0.245,0.832089081
0.2452,0.832089081
0.2454,0.832089081
0.2456,0.835829558
0.2458,0.835829558
0.246,0.835829558
0.2462,0.835829558
0.2464,0.835829558
0.2466,0.835829558
0.2468,0.835829558
0.247,0.835829558
0.2472,0.835829558
0.2474,0.832089081
0.2476,0.832089081
0.2478,0.835829558
0.248,0.835829558
0.2482,0.832089081
0.2484,0.832089081
0.2486,0.832089081
0.2488,0.835829558
0.249,0.835829558
0.2492,0.835829558
0.2494,0.832089081
0.2496,0.835829558
0.2498,0.835829558
0.25,0.835829558
0.2502,0.832089081
0.2504,0.835829558
0.2506,0.835829558
0.2508,0.835829558
0.251,0.835829558
0.2512,0.832089081
0.2514,0.835829558
0.2516,0.832089081
0.2518,0.835829558
0.252,0.832089081
0.2522,0.835829558
0.2524,0.835829558
0.2526,0.832089081
0.2528,0.832089081
0.253,0.832089081
0.2532,0.835829558
0.2534,0.835829558
0.2536,0.835829558
0.2538,0.835829558
0.254,0.832089081
0.2542,0.835829558
0.2544,0.832089081
0.2546,0.835829558
0.2548,0.835829558
0.255,0.835829558
0.2552,0.835829558
0.2554,0.832089081
0.2556,0.835829558
0.2558,0.835829558
0.256,0.835829558
0.2562,0.835829558
0.2564,0.832089081
0.2566,0.835829558
0.2568,0.835829558
0.257,0.835829558
0.2572,0.835829558
0.2574,0.832089081
0.2576,0.832089081
0.2578,0.835829558
0.258,0.835829558
0.2582,0.835829558
0.2584,0.835829558
0.2586,0.835829558
0.2588,0.835829558
0.259,0.835829558
0.2592,0.835829558
0.2594,0.835829558
0.2596,0.835829558
0.2598,0.835829558
0.26,0.835829558
0.2602,0.835829558
0.2604,0.835829558
0.2606,0.835829558
0.2608,0.835829558
0.261,0.835829558
0.2612,0.835829558
0.2614,0.835829558
0.2616,0.835829558
0.2618,0.835829558
0.262,0.835829558
0.2622,0.835829558
0.2624,0.835829558
0.2626,0.835829558
0.2628,0.835829558
0.263,0.835829558
0.2632,0.835829558
0.2634,0.835829558
0.2636,0.835829558
0.2638,0.835829558
0.264,0.835829558
0.2642,0.835829558
0.2644,0.835829558
0.2646,0.835829558
0.2648,0.835829558
0.265,0.835829558
0.2652,0.835829558
0.2654,0.835829558
0.2656,0.835829558
0.2658,0.835829558
0.266,0.832089081
0.2662,0.835829558
0.2664,0.835829558
0.2666,0.835829558
0.2668,0.835829558
0.267,0.835829558
0.2672,0.835829558
0.2674,0.835829558
0.2676,0.835829558
0.2678,0.835829558
0.268,0.835829558
0.2682,0.835829558
0.2684,0.835829558
0.2686,0.835829558
0.2688,0.835829558
0.269,0.835829558
0.2692,0.835829558
0.2694,0.835829558
0.2696,0.835829558
0.2698,0.835829558
0.27,0.835829558
0.2702,0.835829558
0.2704,0.835829558
0.2706,0.835829558
0.2708,0.835829558
0.271,0.835829558
0.2712,0.835829558
0.2714,0.835829558
0.2716,0.835829558
0.2718,0.835829558
0.272,0.835829558
0.2722,0.835829558
0.2724,0.835829558
0.2726,0.835829558
0.2728,0.835829558
0.273,0.835829558
0.2732,0.835829558
0.2734,0.835829558
0.2736,0.835829558
0.2738,0.835829558
0.274,0.835829558
0.2742,0.835829558
0.2744,0.835829558
0.2746,0.835829558
0.2748,0.835829558
0.275,0.832089081
0.2752,0.832089081
0.2754,0.835829558
0.2756,0.832089081
0.2758,0.832089081
0.276,0.835829558
0.2762,0.835829558
0.2764,0.835829558
0.2766,0.835829558
0.2768,0.835829558
0.277,0.835829558
0.2772,0.835829558
0.2774,0.835829558
0.2776,0.832089081
0.2778,0.835829558
0.278,0.835829558
0.2782,0.835829558
0.2784,0.835829558
0.2786,0.835829558
0.2788,0.835829558
0.279,0.835829558
0.2792,0.835829558
0.2794,0.835829558
0.2796,0.835829558
0.2798,0.835829558
0.28,0.835829558
0.2802,0.835829558
0.2804,0.835829558
0.2806,0.835829558
0.2808,0.835829558
0.281,0.835829558
0.2812,0.835829558
0.2814,0.835829558
0.2816,0.835829558
0.2818,0.832089081
0.282,0.835829558
0.2822,0.835829558
0.2824,0.835829558
0.2826,0.835829558
0.2828,0.835829558
0.283,0.835829558
0.2832,0.835829558
0.2834,0.835829558
0.2836,0.835829558
0.2838,0.835829558
0.284,0.835829558
0.2842,0.835829558
0.2844,0.835829558
0.2846,0.835829558
0.2848,0.835829558
0.285,0.835829558
0.2852,0.835829558
0.2854,0.832089081
0.2856,0.835829558
0.2858,0.835829558
0.286,0.835829558
0.2862,0.832089081
0.2864,0.835829558
0.2866,0.832089081
0.2868,0.835829558
0.287,0.835829558
0.2872,0.835829558
0.2874,0.835829558
0.2876,0.835829558
0.2878,0.832089081
0.288,0.835829558
0.2882,0.835829558
0.2884,0.835829558
0.2886,0.835829558
0.2888,0.835829558
0.289,0.835829558
0.2892,0.832089081
0.2894,0.835829558
0.2896,0.835829558
0.2898,0.835829558
0.29,0.835829558
0.2902,0.835829558
0.2904,0.835829558
0.2906,0.835829558
0.2908,0.832089081
0.291,0.835829558
0.2912,0.835829558
0.2914,0.835829558
0.2916,0.835829558
0.2918,0.835829558
0.292,0.835829558
0.2922,0.835829558
0.2924,0.835829558
0.2926,0.835829558
0.2928,0.835829558
0.293,0.835829558
0.2932,0.835829558
0.2934,0.835829558
0.2936,0.835829558
0.2938,0.835829558
0.294,0.835829558
0.2942,0.835829558
0.2944,0.835829558
0.2946,0.835829558
0.2948,0.835829558
0.295,0.835829558
0.2952,0.835829558
0.2954,0.835829558
0.2956,0.832089081
0.2958,0.832089081
0.296,0.835829558
0.2962,0.835829558
0.2964,0.835829558
0.2966,0.835829558
0.2968,0.835829558
0.297,0.835829558
0.2972,0.835829558
0.2974,0.835829558
0.2976,0.835829558
0.2978,0.835829558
0.298,0.835829558
0.2982,0.835829558
0.2984,0.835829558
0.2986,0.835829558
0.2988,0.832089081
0.299,0.835829558
0.2992,0.835829558
0.2994,0.835829558
0.2996,0.832089081
0.2998,0.835829558
0.3,0.832089081
0.3002,0.835829558
0.3004,0.835829558
0.3006,0.835829558
0.3008,0.835829558
0.301,0.835829558
0.3012,0.835829558
0.3014,0.835829558
0.3016,0.835829558
0.3018,0.835829558
0.302,0.835829558
0.3022,0.835829558
0.3024,0.835829558
0.3026,0.835829558
0.3028,0.835829558
0.303,0.835829558
0.3032,0.835829558
0.3034,0.835829558
0.3036,0.835829558
0.3038,0.835829558
0.304,0.835829558
0.3042,0.835829558
0.3044,0.835829558
0.3046,0.835829558
0.3048,0.835829558
0.305,0.835829558
0.3052,0.835829558
0.3054,0.835829558
0.3056,0.835829558
0.3058,0.835829558
0.306,0.835829558
0.3062,0.835829558
0.3064,0.835829558
0.3066,0.835829558
0.3068,0.835829558
0.307,0.835829558
0.3072,0.835829558
0.3074,0.835829558
0.3076,0.835829558
0.3078,0.835829558
0.308,0.835829558
0.3082,0.835829558
0.3084,0.832089081
0.3086,0.835829558
0.3088,0.835829558
0.309,0.832089081
0.3092,0.835829558
0.3094,0.835829558
0.3096,0.835829558
0.3098,0.835829558
0.31,0.835829558
0.3102,0.835829558
0.3104,0.835829558
0.3106,0.835829558
0.3108,0.832089081
0.311,0.832089081
0.3112,0.835829558
0.3114,0.835829558
0.3116,0.835829558
0.3118,0.835829558
0.312,0.835829558
0.3122,0.832089081
0.3124,0.835829558
0.3126,0.835829558
0.3128,0.835829558
0.313,0.835829558
0.3132,0.835829558
0.3134,0.835829558
0.3136,0.835829558
0.3138,0.835829558
0.314,0.835829558
0.3142,0.835829558
0.3144,0.835829558
0.3146,0.835829558
0.3148,0.835829558
0.315,0.835829558
0.3152,0.835829558
0.3154,0.835829558
0.3156,0.835829558
0.3158,0.835829558
0.316,0.835829558
0.3162,0.835829558
0.3164,0.835829558
0.3166,0.835829558
0.3168,0.835829558
0.317,0.835829558
0.3172,0.835829558
0.3174,0.835829558
0.3176,0.832089081
0.3178,0.832089081
0.318,0.832089081
0.3182,0.835829558
0.3184,0.832089081
0.3186,0.835829558
0.3188,0.835829558
0.319,0.835829558
0.3192,0.835829558
0.3194,0.835829558
0.3196,0.835829558
0.3198,0.835829558
0.32,0.835829558
0.3202,0.835829558
0.3204,0.835829558
0.3206,0.835829558
0.3208,0.835829558
0.321,0.835829558
0.3212,0.835829558
0.3214,0.835829558
0.3216,0.835829558
0.3218,0.835829558
0.322,0.835829558
0.3222,0.835829558
0.3224,0.835829558
0.3226,0.835829558
0.3228,0.835829558
0.323,0.835829558
0.3232,0.835829558
0.3234,0.835829558
0.3236,0.835829558
0.3238,0.835829558
0.324,0.835829558
0.3242,0.835829558
0.3244,0.835829558
0.3246,0.835829558
0.3248,0.835829558
0.325,0.832089081
0.3252,0.835829558
0.3254,0.835829558
0.3256,0.835829558
0.3258,0.835829558
0.326,0.835829558
0.3262,0.832089081
0.3264,0.835829558
0.3266,0.835829558
0.3268,0.835829558
0.327,0.835829558
0.3272,0.835829558
0.3274,0.835829558
0.3276,0.835829558
0.3278,0.835829558
0.328,0.835829558
0.3282,0.835829558
0.3284,0.835829558
0.3286,0.835829558
0.3288,0.835829558
0.329,0.835829558
0.3292,0.835829558
0.3294,0.835829558
0.3296,0.835829558
0.3298,0.835829558
0.33,0.835829558
0.3302,0.835829558
0.3304,0.835829558
0.3306,0.835829558
0.3308,0.835829558
0.331,0.835829558
0.3312,0.835829558
0.3314,0.835829558
0.3316,0.835829558
0.3318,0.835829558
0.332,0.835829558
0.3322,0.835829558
0.3324,0.835829558
0.3326,0.835829558
0.3328,0.835829558
0.333,0.835829558
0.3332,0.835829558
0.3334,0.835829558
0.3336,0.835829558
0.3338,0.835829558
0.334,0.835829558
0.3342,0.835829558
0.3344,0.835829558
0.3346,0.835829558
0.3348,0.835829558
0.335,0.835829558
0.3352,0.835829558
0.3354,0.835829558
0.3356,0.835829558
0.3358,0.835829558
0.336,0.835829558
0.3362,0.835829558
0.3364,0.835829558
0.3366,0.835829558
0.3368,0.835829558
0.337,0.835829558
0.3372,0.835829558
0.3374,0.835829558
0.3376,0.835829558
0.3378,0.835829558
0.338,0.835829558
0.3382,0.835829558
0.3384,0.835829558
0.3386,0.835829558
0.3388,0.835829558
0.339,0.835829558
0.3392,0.835829558
0.3394,0.835829558
0.3396,0.835829558
0.3398,0.835829558
0.34,0.835829558
0.3402,0.835829558
0.3404,0.835829558
0.3406,0.835829558
0.3408,0.835829558
0.341,0.835829558
0.3412,0.835829558
0.3414,0.835829558
0.3416,0.835829558
0.3418,0.835829558
0.342,0.835829558
0.3422,0.835829558
0.3424,0.835829558
0.3426,0.835829558
0.3428,0.835829558
0.343,0.835829558
0.3432,0.835829558
0.3434,0.835829558
0.3436,0.835829558
0.3438,0.835829558
0.344,0.835829558
0.3442,0.835829558
0.3444,0.832089081
0.3446,0.835829558
0.3448,0.835829558
0.345,0.835829558
0.3452,0.835829558
0.3454,0.832089081
0.3456,0.835829558
0.3458,0.835829558
0.346,0.832089081
0.3462,0.832089081
0.3464,0.835829558
0.3466,0.835829558
0.3468,0.835829558
0.347,0.835829558
0.3472,0.832089081
0.3474,0.832089081
0.3476,0.835829558
0.3478,0.832089081
0.348,0.835829558
0.3482,0.835829558
0.3484,0.835829558
0.3486,0.835829558
0.3488,0.835829558
0.349,0.835829558
0.3492,0.835829558
0.3494,0.835829558
0.3496,0.835829558
0.3498,0.832089081
0.35,0.835829558
0.3502,0.835829558
0.3504,0.835829558
0.3506,0.835829558
0.3508,0.835829558
0.351,0.835829558
0.3512,0.835829558
0.3514,0.835829558
0.3516,0.835829558
0.3518,0.835829558
0.352,0.835829558
0.3522,0.835829558
0.3524,0.835829558
0.3526,0.835829558
0.3528,0.835829558
0.353,0.832089081
0.3532,0.835829558
0.3534,0.835829558
0.3536,0.835829558
0.3538,0.835829558
0.354,0.835829558
0.3542,0.835829558
0.3544,0.835829558
0.3546,0.832089081
0.3548,0.835829558
0.355,0.835829558
0.3552,0.835829558
0.3554,0.835829558
0.3556,0.835829558
0.3558,0.832089081
0.356,0.832089081
0.3562,0.835829558
0.3564,0.835829558
0.3566,0.835829558
0.3568,0.832089081
0.357,0.832089081
0.3572,0.835829558
0.3574,0.835829558
0.3576,0.835829558
0.3578,0.835829558
0.358,0.835829558
0.3582,0.835829558
0.3584,0.835829558
0.3586,0.835829558
0.3588,0.835829558
0.359,0.835829558
0.3592,0.835829558
0.3594,0.835829558
0.3596,0.835829558
0.3598,0.835829558
0.36,0.835829558
0.3602,0.835829558
0.3604,0.835829558
0.3606,0.835829558
0.3608,0.835829558
0.361,0.835829558
0.3612,0.835829558
0.3614,0.835829558
0.3616,0.835829558
0.3618,0.835829558
0.362,0.835829558
0.3622,0.835829558
0.3624,0.835829558
0.3626,0.835829558
0.3628,0.835829558
0.363,0.835829558
0.3632,0.835829558
0.3634,0.835829558
0.3636,0.835829558
0.3638,0.835829558
0.364,0.835829558
0.3642,0.835829558
0.3644,0.835829558
0.3646,0.835829558
0.3648,0.835829558
0.365,0.835829558
0.3652,0.835829558
0.3654,0.835829558
0.3656,0.835829558
0.3658,0.835829558
0.366,0.835829558
0.3662,0.835829558
0.3664,0.835829558
0.3666,0.835829558
0.3668,0.835829558
0.367,0.835829558
0.3672,0.835829558
0.3674,0.835829558
0.3676,0.835829558
0.3678,0.835829558
0.368,0.835829558
0.3682,0.835829558
0.3684,0.835829558
0.3686,0.835829558
0.3688,0.835829558
0.369,0.835829558
0.3692,0.835829558
0.3694,0.835829558
0.3696,0.835829558
0.3698,0.835829558
0.37,0.835829558
0.3702,0.835829558
0.3704,0.835829558
0.3706,0.835829558
0.3708,0.832089081
0.371,0.835829558
0.3712,0.835829558
0.3714,0.835829558
0.3716,0.835829558
0.3718,0.835829558
0.372,0.835829558
0.3722,0.832089081
0.3724,0.835829558
0.3726,0.835829558
0.3728,0.835829558
0.373,0.835829558
0.3732,0.835829558
0.3734,0.835829558
0.3736,0.835829558
0.3738,0.835829558
0.374,0.832089081
0.3742,0.835829558
0.3744,0.835829558
0.3746,0.835829558
0.3748,0.835829558
0.375,0.835829558
0.3752,0.835829558
0.3754,0.832089081
0.3756,0.835829558
0.3758,0.832089081
0.376,0.832089081
0.3762,0.835829558
0.3764,0.832089081
0.3766,0.835829558
0.3768,0.835829558
0.377,0.832089081
0.3772,0.835829558
0.3774,0.835829558
0.3776,0.835829558
0.3778,0.832089081
0.378,0.832089081
0.3782,0.832089081
0.3784,0.835829558
0.3786,0.835829558
0.3788,0.835829558
0.379,0.835829558
0.3792,0.832089081
0.3794,0.835829558
0.3796,0.835829558
0.3798,0.835829558
0.38,0.835829558
0.3802,0.835829558
0.3804,0.835829558
0.3806,0.835829558
0.3808,0.835829558
0.381,0.835829558
0.3812,0.832089081
0.3814,0.835829558
0.3816,0.835829558
0.3818,0.835829558
0.382,0.835829558
0.3822,0.835829558
0.3824,0.835829558
0.3826,0.835829558
0.3828,0.835829558
0.383,0.835829558
0.3832,0.835829558
0.3834,0.835829558
0.3836,0.835829558
0.3838,0.832089081
0.384,0.835829558
0.3842,0.835829558
0.3844,0.835829558
0.3846,0.835829558
0.3848,0.835829558
0.385,0.835829558
0.3852,0.835829558
0.3854,0.835829558
0.3856,0.835829558
0.3858,0.835829558
0.386,0.835829558
0.3862,0.835829558
0.3864,0.835829558
0.3866,0.835829558
0.3868,0.835829558
0.387,0.835829558
0.3872,0.835829558
0.3874,0.835829558
0.3876,0.835829558
0.3878,0.832089081
0.388,0.835829558
0.3882,0.835829558
0.3884,0.835829558
0.3886,0.835829558
0.3888,0.835829558
0.389,0.835829558
0.3892,0.835829558
0.3894,0.835829558
0.3896,0.835829558
0.3898,0.835829558
0.39,0.835829558
0.3902,0.835829558
0.3904,0.835829558
0.3906,0.835829558
0.3908,0.835829558
0.391,0.835829558
0.3912,0.835829558
0.3914,0.832089081
0.3916,0.835829558
0.3918,0.835829558
0.392,0.835829558
0.3922,0.835829558
0.3924,0.835829558
0.3926,0.835829558
0.3928,0.832089081
0.393,0.835829558
0.3932,0.835829558
0.3934,0.835829558
0.3936,0.835829558
0.3938,0.835829558
0.394,0.835829558
0.3942,0.835829558
0.3944,0.832089081
0.3946,0.835829558
0.3948,0.835829558
0.395,0.835829558
0.3952,0.835829558
0.3954,0.839570035
0.3956,0.843310512
0.3958,0.847050989
0.396,0.854531942
0.3962,0.865753373
0.3964,0.88071528
0.3966,0.914379572
0.3968,1.097662939
0.397,1.568963024
0.3972,2.073927401
0.3974,2.575151302
0.3976,3.068894248
0.3978,3.528972903
0.398,3.932944405
0.3982,4.277068277
0.3984,4.550123088
0.3986,4.752108839
0.3988,4.88302553
0.399,4.939132683
0.3992,4.95409459
0.3994,4.95409459
0.3996,4.95409459
0.3998,4.95409459
0.4,4.957835067
0.4002,4.957835067
0.4004,4.957835067
0.4006,4.95409459
0.4008,4.95409459
0.401,4.957835067
0.4012,4.95409459
0.4014,4.95409459
0.4016,4.957835067
0.4018,4.957835067
0.402,4.95409459
0.4022,4.957835067
0.4024,4.95409459
0.4026,4.95409459
0.4028,4.95409459
0.403,4.957835067
0.4032,4.957835067
0.4034,4.95409459
0.4036,4.957835067
0.4038,4.95409459
0.404,4.95409459
0.4042,4.957835067
0.4044,4.957835067
0.4046,4.957835067
0.4048,4.957835067
0.405,4.957835067
0.4052,4.957835067
0.4054,4.957835067
0.4056,4.957835067
0.4058,4.957835067
0.406,4.957835067
0.4062,4.957835067
0.4064,4.957835067
0.4066,4.957835067
0.4068,4.957835067
0.407,4.957835067
0.4072,4.957835067
0.4074,4.957835067
0.4076,4.957835067
0.4078,4.957835067
0.408,4.957835067
0.4082,4.957835067
0.4084,4.957835067
0.4086,4.957835067
0.4088,4.957835067
0.409,4.957835067
0.4092,4.957835067
0.4094,4.957835067
0.4096,4.957835067
0.4098,4.957835067
0.41,4.957835067
0.4102,4.957835067
0.4104,4.957835067
0.4106,4.957835067
0.4108,4.95409459
0.411,4.957835067
0.4112,4.957835067
0.4114,4.957835067
0.4116,4.95409459
0.4118,4.957835067
0.412,4.957835067
0.4122,4.957835067
0.4124,4.95409459
0.4126,4.957835067
0.4128,4.957835067
0.413,4.957835067
0.4132,4.957835067
0.4134,4.95409459
0.4136,4.939132683
0.4138,4.864323145
0.414,4.681039779
0.4142,4.366839722
0.4144,3.929203928
0.4146,3.409277643
0.4148,2.85194659
0.415,2.283394106
0.4152,1.726063053
0.4154,1.202396291
0.4156,0.925601003
0.4158,0.884455757
0.416,0.865753373
0.4162,0.858272419
0.4164,0.850791465
0.4166,0.847050989
0.4168,0.843310512
0.417,0.839570035
0.4172,0.835829558
0.4174,0.835829558
0.4176,0.835829558
0.4178,0.835829558
0.418,0.832089081
0.4182,0.832089081
0.4184,0.835829558
0.4186,0.835829558
0.4188,0.835829558
0.419,0.835829558
0.4192,0.835829558
0.4194,0.835829558
0.4196,0.835829558
0.4198,0.835829558
0.42,0.835829558
0.4202,0.832089081
0.4204,0.832089081
0.4206,0.835829558
0.4208,0.835829558
0.421,0.835829558
0.4212,0.835829558
0.4214,0.835829558
0.4216,0.835829558
0.4218,0.835829558
0.422,0.832089081
0.4222,0.835829558
0.4224,0.835829558
0.4226,0.835829558
0.4228,0.835829558
0.423,0.832089081
0.4232,0.835829558
0.4234,0.835829558
0.4236,0.835829558
0.4238,0.835829558
0.424,0.835829558
0.4242,0.835829558
0.4244,0.835829558
0.4246,0.835829558
0.4248,0.835829558
0.425,0.835829558
0.4252,0.835829558
0.4254,0.832089081
0.4256,0.832089081
0.4258,0.832089081
0.426,0.835829558
0.4262,0.832089081
0.4264,0.835829558
0.4266,0.835829558
0.4268,0.835829558
0.427,0.835829558
0.4272,0.835829558
0.4274,0.835829558
0.4276,0.835829558
0.4278,0.835829558
0.428,0.835829558
0.4282,0.835829558
0.4284,0.832089081
0.4286,0.832089081
0.4288,0.832089081
0.429,0.832089081
0.4292,0.832089081
0.4294,0.835829558
0.4296,0.835829558
0.4298,0.835829558
0.43,0.832089081
0.4302,0.835829558
0.4304,0.832089081
0.4306,0.835829558
0.4308,0.835829558
0.431,0.835829558
0.4312,0.835829558
0.4314,0.832089081
0.4316,0.832089081
0.4318,0.835829558
0.432,0.835829558
0.4322,0.835829558
0.4324,0.832089081
0.4326,0.832089081
0.4328,0.832089081
0.433,0.835829558
0.4332,0.835829558
0.4334,0.832089081
0.4336,0.832089081
0.4338,0.835829558
0.434,0.835829558
0.4342,0.835829558
0.4344,0.832089081
0.4346,0.832089081
0.4348,0.832089081
0.435,0.835829558
0.4352,0.835829558
0.4354,0.832089081
0.4356,0.832089081
0.4358,0.835829558
0.436,0.835829558
0.4362,0.835829558
0.4364,0.835829558
0.4366,0.835829558
0.4368,0.835829558
0.437,0.832089081
0.4372,0.835829558
0.4374,0.835829558
0.4376,0.835829558
0.4378,0.835829558
0.438,0.832089081
0.4382,0.832089081
0.4384,0.835829558
0.4386,0.835829558
0.4388,0.835829558
0.439,0.832089081
0.4392,0.835829558
0.4394,0.835829558
0.4396,0.832089081
0.4398,0.835829558
0.44,0.835829558
0.4402,0.832089081
0.4404,0.835829558
0.4406,0.835829558
0.4408,0.835829558
0.441,0.835829558
0.4412,0.835829558
0.4414,0.835829558
0.4416,0.835829558
0.4418,0.832089081
0.442,0.835829558
0.4422,0.835829558
0.4424,0.835829558
0.4426,0.835829558
0.4428,0.835829558
0.443,0.835829558
0.4432,0.835829558
0.4434,0.835829558
0.4436,0.835829558
0.4438,0.835829558
0.444,0.832089081
0.4442,0.835829558
0.4444,0.835829558
0.4446,0.835829558
0.4448,0.832089081
0.445,0.835829558
0.4452,0.835829558
0.4454,0.835829558
0.4456,0.835829558
0.4458,0.835829558
0.446,0.835829558
0.4462,0.835829558
0.4464,0.835829558
0.4466,0.835829558
0.4468,0.835829558
0.447,0.835829558
0.4472,0.835829558
0.4474,0.835829558
0.4476,0.835829558
0.4478,0.835829558
0.448,0.835829558
0.4482,0.835829558
0.4484,0.835829558
0.4486,0.835829558
0.4488,0.835829558
0.449,0.835829558
0.4492,0.835829558
0.4494,0.835829558
0.4496,0.835829558
0.4498,0.835829558
0.45,0.835829558
0.4502,0.835829558
0.4504,0.835829558
0.4506,0.835829558
0.4508,0.835829558
0.451,0.835829558
0.4512,0.835829558
0.4514,0.835829558
0.4516,0.835829558
0.4518,0.835829558
0.452,0.835829558
0.4522,0.835829558
0.4524,0.835829558
0.4526,0.832089081
0.4528,0.835829558
0.453,0.835829558
0.4532,0.835829558
0.4534,0.832089081
0.4536,0.835829558
0.4538,0.835829558
0.454,0.835829558
0.4542,0.835829558
0.4544,0.832089081
0.4546,0.832089081
0.4548,0.832089081
0.455,0.835829558
0.4552,0.832089081
0.4554,0.832089081
0.4556,0.832089081
0.4558,0.835829558
0.456,0.835829558
0.4562,0.835829558
0.4564,0.835829558
0.4566,0.835829558
0.4568,0.835829558
0.457,0.832089081
0.4572,0.835829558
0.4574,0.832089081
0.4576,0.835829558
0.4578,0.835829558
0.458,0.832089081
0.4582,0.835829558
0.4584,0.835829558
0.4586,0.835829558
0.4588,0.835829558
0.459,0.832089081
0.4592,0.832089081
0.4594,0.835829558
0.4596,0.835829558
0.4598,0.832089081
0.46,0.835829558
0.4602,0.832089081
0.4604,0.832089081
0.4606,0.835829558
0.4608,0.835829558
0.461,0.835829558
0.4612,0.832089081
0.4614,0.835829558
0.4616,0.835829558
0.4618,0.835829558
0.462,0.835829558
0.4622,0.835829558
0.4624,0.835829558
0.4626,0.832089081
0.4628,0.835829558
0.463,0.835829558
0.4632,0.835829558
0.4634,0.832089081
0.4636,0.832089081
0.4638,0.832089081
0.464,0.835829558
0.4642,0.832089081
0.4644,0.832089081
0.4646,0.832089081
0.4648,0.832089081
0.465,0.832089081
0.4652,0.832089081
0.4654,0.832089081
0.4656,0.835829558
0.4658,0.835829558
0.466,0.832089081
0.4662,0.835829558
0.4664,0.835829558
0.4666,0.835829558
0.4668,0.835829558
0.467,0.832089081
0.4672,0.832089081
0.4674,0.835829558
0.4676,0.832089081
0.4678,0.835829558
0.468,0.832089081
0.4682,0.832089081
0.4684,0.832089081
0.4686,0.832089081
0.4688,0.832089081
0.469,0.832089081
0.4692,0.835829558
0.4694,0.835829558
0.4696,0.835829558
0.4698,0.835829558
0.47,0.835829558
0.4702,0.835829558
0.4704,0.835829558
0.4706,0.832089081
0.4708,0.832089081
0.471,0.832089081
0.4712,0.832089081
0.4714,0.832089081
0.4716,0.832089081
0.4718,0.832089081
0.472,0.835829558
0.4722,0.835829558
0.4724,0.835829558
0.4726,0.832089081
0.4728,0.835829558
0.473,0.835829558
0.4732,0.835829558
0.4734,0.835829558
0.4736,0.832089081
0.4738,0.832089081
0.474,0.835829558
0.4742,0.835829558
0.4744,0.835829558
0.4746,0.835829558
0.4748,0.835829558
0.475,0.835829558
0.4752,0.832089081
0.4754,0.835829558
0.4756,0.835829558
0.4758,0.832089081
0.476,0.835829558
0.4762,0.835829558
0.4764,0.835829558
0.4766,0.835829558
0.4768,0.835829558
0.477,0.835829558
0.4772,0.835829558
0.4774,0.835829558
0.4776,0.835829558
0.4778,0.835829558
0.478,0.835829558
0.4782,0.835829558
0.4784,0.835829558
0.4786,0.835829558
0.4788,0.835829558
0.479,0.835829558
0.4792,0.835829558
0.4794,0.835829558
0.4796,0.835829558
0.4798,0.835829558
0.48,0.832089081
0.4802,0.835829558
0.4804,0.835829558
0.4806,0.832089081
0.4808,0.835829558
0.481,0.832089081
0.4812,0.835829558
0.4814,0.835829558
0.4816,0.835829558
0.4818,0.835829558
0.482,0.835829558
0.4822,0.835829558
0.4824,0.835829558
0.4826,0.835829558
0.4828,0.835829558
0.483,0.835829558
0.4832,0.835829558
0.4834,0.835829558
0.4836,0.835829558
0.4838,0.835829558
0.484,0.835829558
0.4842,0.835829558
0.4844,0.835829558
0.4846,0.835829558
0.4848,0.835829558
0.485,0.835829558
0.4852,0.835829558
0.4854,0.835829558
0.4856,0.835829558
0.4858,0.835829558
0.486,0.835829558
0.4862,0.835829558
0.4864,0.835829558
0.4866,0.835829558
0.4868,0.835829558
0.487,0.835829558
0.4872,0.835829558
0.4874,0.835829558
0.4876,0.835829558
0.4878,0.835829558
0.488,0.835829558
0.4882,0.835829558
0.4884,0.835829558
0.4886,0.835829558
0.4888,0.835829558
0.489,0.835829558
0.4892,0.835829558
0.4894,0.835829558
0.4896,0.835829558
0.4898,0.835829558
0.49,0.835829558
0.4902,0.835829558
0.4904,0.835829558
0.4906,0.835829558
0.4908,0.835829558
0.491,0.835829558
0.4912,0.835829558
0.4914,0.835829558
0.4916,0.835829558
0.4918,0.835829558
0.492,0.832089081
0.4922,0.835829558
0.4924,0.835829558
0.4926,0.832089081
0.4928,0.832089081
0.493,0.835829558
0.4932,0.835829558
0.4934,0.835829558
0.4936,0.835829558
0.4938,0.835829558
0.494,0.835829558
0.4942,0.835829558
0.4944,0.835829558
0.4946,0.835829558
0.4948,0.835829558
0.495,0.835829558
0.4952,0.835829558
0.4954,0.835829558
0.4956,0.835829558
0.4958,0.835829558
0.496,0.835829558
0.4962,0.832089081
0.4964,0.835829558
0.4966,0.835829558
0.4968,0.835829558
0.497,0.835829558
0.4972,0.835829558
0.4974,0.835829558
0.4976,0.835829558
0.4978,0.835829558
0.498,0.835829558
0.4982,0.835829558
0.4984,0.835829558
0.4986,0.835829558
0.4988,0.832089081
0.499,0.835829558
0.4992,0.835829558
0.4994,0.835829558
0.4996,0.835829558
0.4998,0.835829558
0.5,0.835829558
0.5002,0.835829558
0.5004,0.835829558
0.5006,0.835829558
0.5008,0.835829558
0.501,0.835829558
0.5012,0.835829558
0.5014,0.835829558
0.5016,0.835829558
0.5018,0.835829558
0.502,0.835829558
0.5022,0.835829558
0.5024,0.835829558
0.5026,0.835829558
0.5028,0.835829558
0.503,0.835829558
0.5032,0.835829558
0.5034,0.835829558
0.5036,0.835829558
0.5038,0.835829558
0.504,0.835829558
0.5042,0.835829558
0.5044,0.835829558
0.5046,0.835829558
0.5048,0.835829558
0.505,0.835829558
0.5052,0.835829558
0.5054,0.835829558
0.5056,0.835829558
0.5058,0.835829558
0.506,0.835829558
0.5062,0.832089081
0.5064,0.835829558
0.5066,0.835829558
0.5068,0.835829558
0.507,0.835829558
0.5072,0.835829558
0.5074,0.835829558
0.5076,0.832089081
0.5078,0.832089081
0.508,0.835829558
0.5082,0.835829558
0.5084,0.835829558
0.5086,0.835829558
0.5088,0.835829558
0.509,0.835829558
0.5092,0.835829558
0.5094,0.835829558
0.5096,0.835829558
0.5098,0.832089081
0.51,0.835829558
0.5102,0.835829558
0.5104,0.835829558
0.5106,0.835829558
0.5108,0.835829558
0.511,0.835829558
0.5112,0.835829558
0.5114,0.835829558
0.5116,0.835829558
0.5118,0.835829558
0.512,0.832089081
0.5122,0.835829558
0.5124,0.835829558
0.5126,0.835829558
0.5128,0.835829558
0.513,0.832089081
0.5132,0.835829558
0.5134,0.835829558
0.5136,0.835829558
0.5138,0.835829558
0.514,0.835829558
0.5142,0.835829558
0.5144,0.835829558
0.5146,0.835829558
0.5148,0.835829558
0.515,0.835829558
0.5152,0.835829558
0.5154,0.835829558
0.5156,0.835829558
0.5158,0.835829558
0.516,0.835829558
0.5162,0.835829558
0.5164,0.835829558
0.5166,0.835829558
0.5168,0.832089081
0.517,0.832089081
0.5172,0.835829558
0.5174,0.835829558
0.5176,0.835829558
0.5178,0.835829558
0.518,0.835829558
0.5182,0.835829558
0.5184,0.835829558
0.5186,0.835829558
0.5188,0.832089081
0.519,0.832089081
0.5192,0.835829558
0.5194,0.832089081
0.5196,0.835829558
0.5198,0.835829558
0.52,0.832089081
0.5202,0.835829558
0.5204,0.832089081
0.5206,0.835829558
0.5208,0.832089081
0.521,0.832089081
0.5212,0.835829558
0.5214,0.832089081
0.5216,0.835829558
0.5218,0.835829558
0.522,0.835829558
0.5222,0.835829558
0.5224,0.835829558
0.5226,0.835829558
0.5228,0.832089081
0.523,0.835829558
0.5232,0.832089081
0.5234,0.835829558
0.5236,0.835829558
0.5238,0.835829558
0.524,0.835829558
0.5242,0.835829558
0.5244,0.835829558
0.5246,0.835829558
0.5248,0.835829558
0.525,0.835829558
0.5252,0.835829558
0.5254,0.835829558
0.5256,0.835829558
0.5258,0.835829558
0.526,0.835829558
0.5262,0.835829558
0.5264,0.835829558
0.5266,0.835829558
0.5268,0.835829558
0.527,0.835829558
0.5272,0.835829558
0.5274,0.835829558
0.5276,0.835829558
0.5278,0.835829558
0.528,0.835829558
0.5282,0.835829558
0.5284,0.835829558
0.5286,0.835829558
0.5288,0.835829558
0.529,0.835829558
0.5292,0.835829558
0.5294,0.835829558
0.5296,0.835829558
0.5298,0.835829558
0.53,0.835829558
0.5302,0.835829558
0.5304,0.835829558
0.5306,0.832089081
0.5308,0.835829558
0.531,0.835829558
0.5312,0.835829558
0.5314,0.835829558
0.5316,0.835829558
0.5318,0.832089081
0.532,0.832089081
0.5322,0.835829558
0.5324,0.835829558
0.5326,0.835829558
0.5328,0.835829558
0.533,0.835829558
0.5332,0.832089081
0.5334,0.835829558
0.5336,0.835829558
0.5338,0.835829558
0.534,0.835829558
0.5342,0.835829558
0.5344,0.835829558
0.5346,0.835829558
0.5348,0.835829558
0.535,0.835829558
0.5352,0.835829558
0.5354,0.835829558
0.5356,0.835829558
0.5358,0.835829558
0.536,0.835829558
0.5362,0.835829558
0.5364,0.835829558
0.5366,0.835829558
0.5368,0.832089081
0.537,0.832089081
0.5372,0.832089081
0.5374,0.832089081
0.5376,0.835829558
0.5378,0.835829558
0.538,0.835829558
0.5382,0.835829558
0.5384,0.835829558
0.5386,0.835829558
0.5388,0.832089081
0.539,0.835829558
0.5392,0.835829558
0.5394,0.835829558
0.5396,0.832089081
0.5398,0.835829558
0.54,0.835829558
0.5402,0.835829558
0.5404,0.835829558
0.5406,0.835829558
0.5408,0.835829558
0.541,0.835829558
0.5412,0.835829558
0.5414,0.835829558
0.5416,0.832089081
0.5418,0.835829558
0.542,0.835829558
0.5422,0.835829558
0.5424,0.835829558
0.5426,0.832089081
0.5428,0.835829558
0.543,0.832089081
0.5432,0.835829558
0.5434,0.835829558
0.5436,0.835829558
0.5438,0.835829558
0.544,0.835829558
0.5442,0.835829558
0.5444,0.835829558
0.5446,0.835829558
0.5448,0.832089081
0.545,0.835829558
0.5452,0.835829558
0.5454,0.835829558
0.5456,0.832089081
0.5458,0.832089081
0.546,0.835829558
0.5462,0.835829558
0.5464,0.835829558
0.5466,0.835829558
0.5468,0.835829558
0.547,0.835829558
0.5472,0.835829558
0.5474,0.835829558
0.5476,0.835829558
0.5478,0.835829558
0.548,0.835829558
0.5482,0.835829558
0.5484,0.835829558
0.5486,0.835829558
0.5488,0.835829558
0.549,0.835829558
0.5492,0.835829558
0.5494,0.835829558
0.5496,0.835829558
0.5498,0.835829558
0.55,0.835829558
0.5502,0.835829558
0.5504,0.835829558
0.5506,0.835829558
0.5508,0.835829558
0.551,0.835829558
0.5512,0.832089081
0.5514,0.835829558
0.5516,0.835829558
0.5518,0.835829558
0.552,0.835829558
0.5522,0.835829558
0.5524,0.835829558
0.5526,0.832089081
0.5528,0.835829558
0.553,0.832089081
0.5532,0.832089081
0.5534,0.835829558
0.5536,0.835829558
0.5538,0.832089081
0.554,0.832089081
0.5542,0.835829558
0.5544,0.832089081
0.5546,0.832089081
0.5548,0.832089081
0.555,0.832089081
0.5552,0.832089081
0.5554,0.832089081
0.5556,0.832089081
0.5558,0.832089081
0.556,0.832089081
0.5562,0.832089081
0.5564,0.832089081
0.5566,0.835829558
0.5568,0.832089081
0.557,0.832089081
0.5572,0.835829558
0.5574,0.835829558
0.5576,0.832089081
0.5578,0.832089081
0.558,0.832089081
0.5582,0.832089081
0.5584,0.832089081
0.5586,0.832089081
0.5588,0.835829558
0.559,0.832089081
0.5592,0.832089081
0.5594,0.835829558
0.5596,0.832089081
0.5598,0.832089081
0.56,0.835829558
0.5602,0.832089081
0.5604,0.832089081
0.5606,0.832089081
0.5608,0.835829558
0.561,0.832089081
0.5612,0.832089081
0.5614,0.835829558
0.5616,0.835829558
0.5618,0.835829558
0.562,0.832089081
0.5622,0.835829558
0.5624,0.835829558
0.5626,0.835829558
0.5628,0.835829558
0.563,0.835829558
0.5632,0.832089081
0.5634,0.835829558
0.5636,0.835829558
0.5638,0.835829558
0.564,0.835829558
0.5642,0.835829558
0.5644,0.835829558
0.5646,0.832089081
0.5648,0.832089081
0.565,0.832089081
0.5652,0.832089081
0.5654,0.832089081
0.5656,0.832089081
0.5658,0.832089081
0.566,0.832089081
0.5662,0.832089081
0.5664,0.835829558
0.5666,0.835829558
0.5668,0.832089081
0.567,0.835829558
0.5672,0.835829558
0.5674,0.835829558
0.5676,0.835829558
0.5678,0.835829558
0.568,0.832089081
0.5682,0.835829558
0.5684,0.835829558
0.5686,0.835829558
0.5688,0.835829558
0.569,0.835829558
0.5692,0.832089081
0.5694,0.835829558
0.5696,0.835829558
0.5698,0.835829558
0.57,0.835829558
0.5702,0.835829558
0.5704,0.835829558
0.5706,0.835829558
0.5708,0.835829558
0.571,0.835829558
0.5712,0.832089081
0.5714,0.835829558
0.5716,0.835829558
0.5718,0.835829558
0.572,0.835829558
0.5722,0.835829558
0.5724,0.835829558
0.5726,0.832089081
0.5728,0.832089081
0.573,0.832089081
0.5732,0.835829558
0.5734,0.832089081
0.5736,0.832089081
0.5738,0.835829558
0.574,0.832089081
0.5742,0.835829558
0.5744,0.832089081
0.5746,0.832089081
0.5748,0.832089081
0.575,0.832089081
0.5752,0.832089081
0.5754,0.832089081
0.5756,0.832089081
0.5758,0.835829558
0.576,0.835829558
0.5762,0.835829558
0.5764,0.832089081
0.5766,0.832089081
0.5768,0.835829558
0.577,0.832089081
0.5772,0.832089081
0.5774,0.835829558
0.5776,0.835829558
0.5778,0.832089081
0.578,0.832089081
0.5782,0.835829558
0.5784,0.835829558
0.5786,0.832089081
0.5788,0.835829558
0.579,0.832089081
0.5792,0.835829558
0.5794,0.835829558
0.5796,0.835829558
0.5798,0.835829558
0.58,0.835829558
0.5802,0.832089081
0.5804,0.832089081
0.5806,0.832089081
0.5808,0.835829558
0.581,0.835829558
0.5812,0.832089081
0.5814,0.835829558
0.5816,0.835829558
0.5818,0.835829558
0.582,0.832089081
0.5822,0.835829558
0.5824,0.835829558
0.5826,0.835829558
0.5828,0.835829558
0.583,0.835829558
0.5832,0.835829558
0.5834,0.835829558
0.5836,0.835829558
0.5838,0.832089081
0.584,0.835829558
0.5842,0.835829558
0.5844,0.835829558
0.5846,0.835829558
0.5848,0.832089081
0.585,0.835829558
0.5852,0.835829558
0.5854,0.835829558
0.5856,0.835829558
0.5858,0.832089081
0.586,0.835829558
0.5862,0.832089081
0.5864,0.835829558
0.5866,0.835829558
0.5868,0.832089081
0.587,0.835829558
0.5872,0.835829558
0.5874,0.839570035
0.5876,0.843310512
0.5878,0.850791465
0.588,0.858272419
0.5882,0.86949385
0.5884,0.888196234
0.5886,0.981708156
0.5888,1.662474946
0.589,2.60133464
0.5892,3.525232426
0.5894,4.254625416
0.5896,4.688520732
0.5898,4.88302553
0.59,4.942873159
0.5902,4.95409459
0.5904,4.95409459
0.5906,4.95409459
0.5908,4.95409459
0.591,4.95409459
0.5912,4.957835067
0.5914,4.957835067
0.5916,4.957835067
0.5918,4.95409459
0.592,4.95409459
0.5922,4.957835067
0.5924,4.957835067
0.5926,4.957835067
0.5928,4.957835067
0.593,4.957835067
0.5932,4.957835067
0.5934,4.957835067
0.5936,4.957835067
0.5938,4.957835067
0.594,4.957835067
0.5942,4.957835067
0.5944,4.957835067
0.5946,4.957835067
0.5948,4.957835067
0.595,4.957835067
0.5952,4.957835067
0.5954,4.957835067
0.5956,4.957835067
0.5958,4.957835067
0.596,4.957835067
0.5962,4.957835067
0.5964,4.957835067
0.5966,4.957835067
0.5968,4.957835067
0.597,4.957835067
0.5972,4.957835067
0.5974,4.957835067
0.5976,4.957835067
0.5978,4.95409459
0.598,4.957835067
0.5982,4.95409459
0.5984,4.95409459
0.5986,4.95409459
0.5988,4.957835067
0.599,4.95409459
0.5992,4.95409459
0.5994,4.95409459
0.5996,4.95409459
0.5998,4.95409459
0.6,4.942873159
0.6002,4.845620761
0.6004,4.494015935
0.6006,3.704775316
0.6008,2.634998932
0.601,1.602627316
0.6012,0.948043864
0.6014,0.88071528
0.6016,0.865753373
0.6018,0.854531942
0.602,0.847050989
0.6022,0.843310512
0.6024,0.839570035
0.6026,0.835829558
0.6028,0.835829558
0.603,0.835829558
0.6032,0.835829558
0.6034,0.835829558
0.6036,0.835829558
0.6038,0.835829558
0.604,0.835829558
0.6042,0.835829558
0.6044,0.835829558
0.6046,0.835829558
0.6048,0.835829558
0.605,0.835829558
0.6052,0.835829558
0.6054,0.835829558
0.6056,0.835829558
0.6058,0.835829558
0.606,0.835829558
0.6062,0.835829558
0.6064,0.835829558
0.6066,0.835829558
0.6068,0.835829558
0.607,0.835829558
0.6072,0.835829558
0.6074,0.835829558
0.6076,0.835829558
0.6078,0.835829558
0.608,0.835829558
0.6082,0.835829558
0.6084,0.835829558
0.6086,0.835829558
0.6088,0.835829558
0.609,0.835829558
0.6092,0.835829558
0.6094,0.835829558
0.6096,0.832089081
0.6098,0.832089081
0.61,0.835829558
0.6102,0.832089081
0.6104,0.832089081
0.6106,0.835829558
0.6108,0.835829558
0.611,0.835829558
0.6112,0.835829558
0.6114,0.835829558
0.6116,0.835829558
0.6118,0.835829558
0.612,0.835829558
0.6122,0.835829558
0.6124,0.835829558
0.6126,0.832089081
0.6128,0.835829558
0.613,0.835829558
0.6132,0.835829558
0.6134,0.832089081
0.6136,0.832089081
0.6138,0.835829558
0.614,0.835829558
0.6142,0.832089081
0.6144,0.835829558
0.6146,0.835829558
0.6148,0.835829558
0.615,0.835829558
0.6152,0.835829558
0.6154,0.835829558
0.6156,0.835829558
0.6158,0.835829558
0.616,0.832089081
0.6162,0.835829558
0.6164,0.835829558
0.6166,0.835829558
0.6168,0.832089081
0.617,0.835829558
0.6172,0.835829558
0.6174,0.835829558
0.6176,0.835829558
0.6178,0.835829558
0.618,0.835829558
0.6182,0.835829558
0.6184,0.835829558
0.6186,0.835829558
0.6188,0.835829558
0.619,0.835829558
0.6192,0.835829558
0.6194,0.835829558
0.6196,0.835829558
0.6198,0.835829558
0.62,0.835829558
0.6202,0.832089081
0.6204,0.835829558
0.6206,0.835829558
0.6208,0.835829558
0.621,0.835829558
0.6212,0.835829558
0.6214,0.835829558
0.6216,0.835829558
0.6218,0.835829558
0.622,0.835829558
0.6222,0.835829558
0.6224,0.835829558
0.6226,0.835829558
0.6228,0.835829558
0.623,0.835829558
0.6232,0.835829558
0.6234,0.835829558
0.6236,0.835829558
0.6238,0.835829558
0.624,0.835829558
0.6242,0.835829558
0.6244,0.835829558
0.6246,0.835829558
0.6248,0.835829558
0.625,0.835829558
0.6252,0.835829558
0.6254,0.835829558
0.6256,0.835829558
0.6258,0.835829558
0.626,0.832089081
0.6262,0.835829558
0.6264,0.835829558
0.6266,0.835829558
0.6268,0.835829558
0.627,0.835829558
0.6272,0.835829558
0.6274,0.835829558
0.6276,0.835829558
0.6278,0.835829558
0.628,0.835829558
0.6282,0.835829558
0.6284,0.835829558
0.6286,0.832089081
0.6288,0.835829558
0.629,0.835829558
0.6292,0.835829558
0.6294,0.835829558
0.6296,0.835829558
0.6298,0.835829558
0.63,0.832089081
0.6302,0.832089081
0.6304,0.832089081
0.6306,0.835829558
0.6308,0.835829558
0.631,0.835829558
0.6312,0.835829558
0.6314,0.835829558
0.6316,0.832089081
0.6318,0.835829558
0.632,0.835829558
0.6322,0.835829558
0.6324,0.835829558
0.6326,0.835829558
0.6328,0.835829558
0.633,0.835829558
0.6332,0.835829558
0.6334,0.835829558
0.6336,0.835829558
0.6338,0.835829558
0.634,0.835829558
0.6342,0.835829558
0.6344,0.835829558
0.6346,0.835829558
0.6348,0.835829558
0.635,0.835829558
0.6352,0.835829558
0.6354,0.832089081
0.6356,0.835829558
0.6358,0.832089081
0.636,0.832089081
0.6362,0.835829558
0.6364,0.835829558
0.6366,0.835829558
0.6368,0.835829558
0.637,0.832089081
0.6372,0.835829558
0.6374,0.835829558
0.6376,0.835829558
0.6378,0.835829558
0.638,0.835829558
0.6382,0.835829558
0.6384,0.835829558
0.6386,0.835829558
0.6388,0.835829558
0.639,0.832089081
0.6392,0.835829558
0.6394,0.835829558
0.6396,0.835829558
0.6398,0.835829558
0.64,0.835829558
0.6402,0.835829558
0.6404,0.835829558
0.6406,0.835829558
0.6408,0.835829558
0.641,0.835829558
0.6412,0.832089081
0.6414,0.832089081
0.6416,0.832089081
0.6418,0.835829558
0.642,0.832089081
0.6422,0.835829558
0.6424,0.835829558
0.6426,0.835829558
0.6428,0.835829558
0.643,0.835829558
0.6432,0.835829558
0.6434,0.835829558
0.6436,0.835829558
0.6438,0.835829558
0.644,0.835829558
0.6442,0.835829558
0.6444,0.832089081
0.6446,0.835829558
0.6448,0.832089081
0.645,0.832089081
0.6452,0.835829558
0.6454,0.835829558
0.6456,0.835829558
0.6458,0.835829558
0.646,0.835829558
0.6462,0.835829558
0.6464,0.832089081
0.6466,0.832089081
0.6468,0.832089081
0.647,0.832089081
0.6472,0.832089081
0.6474,0.835829558
0.6476,0.835829558
0.6478,0.835829558
0.648,0.832089081
0.6482,0.835829558
0.6484,0.835829558
0.6486,0.832089081
0.6488,0.832089081
0.649,0.832089081
0.6492,0.832089081
0.6494,0.835829558
0.6496,0.835829558
0.6498,0.832089081
0.65,0.835829558
0.6502,0.835829558
0.6504,0.835829558
0.6506,0.832089081
0.6508,0.835829558
0.651,0.835829558
0.6512,0.832089081
0.6514,0.832089081
0.6516,0.835829558
0.6518,0.835829558
0.652,0.832089081
0.6522,0.835829558
0.6524,0.835829558
0.6526,0.832089081
0.6528,0.832089081
0.653,0.835829558
0.6532,0.835829558
0.6534,0.835829558
0.6536,0.832089081
0.6538,0.832089081
0.654,0.835829558
0.6542,0.835829558
0.6544,0.832089081
0.6546,0.832089081
0.6548,0.832089081
0.655,0.835829558
0.6552,0.832089081
0.6554,0.835829558
0.6556,0.832089081
0.6558,0.832089081
0.656,0.835829558
0.6562,0.832089081
0.6564,0.832089081
0.6566,0.835829558
0.6568,0.835829558
0.657,0.835829558
0.6572,0.835829558
0.6574,0.835829558
0.6576,0.835829558
0.6578,0.835829558
0.658,0.832089081
0.6582,0.832089081
0.6584,0.832089081
0.6586,0.835829558
0.6588,0.832089081
0.659,0.835829558
0.6592,0.832089081
0.6594,0.835829558
0.6596,0.835829558
0.6598,0.835829558
0.66,0.835829558
0.6602,0.832089081
0.6604,0.835829558
0.6606,0.835829558
0.6608,0.832089081
0.661,0.835829558
0.6612,0.835829558
0.6614,0.835829558
0.6616,0.835829558
0.6618,0.835829558
0.662,0.835829558
0.6622,0.835829558
0.6624,0.835829558
0.6626,0.835829558
0.6628,0.832089081
0.663,0.835829558
0.6632,0.835829558
0.6634,0.835829558
0.6636,0.835829558
0.6638,0.835829558
0.664,0.835829558
0.6642,0.835829558
0.6644,0.835829558
0.6646,0.835829558
0.6648,0.835829558
0.665,0.835829558
0.6652,0.835829558
0.6654,0.832089081
0.6656,0.835829558
0.6658,0.835829558
0.666,0.835829558
0.6662,0.832089081
0.6664,0.835829558
0.6666,0.835829558
0.6668,0.835829558
0.667,0.832089081
0.6672,0.835829558
0.6674,0.835829558
0.6676,0.832089081
0.6678,0.832089081
0.668,0.835829558
0.6682,0.835829558
0.6684,0.832089081
0.6686,0.832089081
0.6688,0.832089081
0.669,0.835829558
0.6692,0.832089081
0.6694,0.832089081
0.6696,0.835829558
0.6698,0.835829558
0.67,0.835829558
0.6702,0.835829558
0.6704,0.835829558
0.6706,0.835829558
0.6708,0.832089081
0.671,0.832089081
0.6712,0.832089081
0.6714,0.832089081
0.6716,0.832089081
0.6718,0.832089081
0.672,0.832089081
0.6722,0.835829558
0.6724,0.832089081
0.6726,0.832089081
0.6728,0.835829558
0.673,0.832089081
0.6732,0.832089081
0.6734,0.832089081
0.6736,0.835829558
0.6738,0.835829558
0.674,0.835829558
0.6742,0.835829558
0.6744,0.835829558
0.6746,0.835829558
0.6748,0.835829558
0.675,0.832089081
0.6752,0.835829558
0.6754,0.832089081
0.6756,0.832089081
0.6758,0.832089081
0.676,0.832089081
0.6762,0.832089081
0.6764,0.832089081
0.6766,0.832089081
0.6768,0.832089081
0.677,0.832089081
0.6772,0.832089081
0.6774,0.832089081
0.6776,0.832089081
0.6778,0.832089081
0.678,0.832089081
0.6782,0.835829558
0.6784,0.835829558
0.6786,0.832089081
0.6788,0.835829558
0.679,0.835829558
0.6792,0.832089081
0.6794,0.832089081
0.6796,0.832089081
0.6798,0.832089081
0.68,0.835829558
0.6802,0.835829558
0.6804,0.832089081
0.6806,0.835829558
0.6808,0.835829558
0.681,0.835829558
0.6812,0.835829558
0.6814,0.835829558
0.6816,0.835829558
0.6818,0.835829558
0.682,0.832089081
0.6822,0.832089081
0.6824,0.835829558
0.6826,0.832089081
0.6828,0.835829558
0.683,0.835829558
0.6832,0.835829558
0.6834,0.832089081
0.6836,0.835829558
0.6838,0.832089081
0.684,0.835829558
0.6842,0.835829558
0.6844,0.835829558
0.6846,0.832089081
0.6848,0.835829558
0.685,0.832089081
0.6852,0.835829558
0.6854,0.835829558
0.6856,0.832089081
0.6858,0.832089081
0.686,0.832089081
0.6862,0.832089081
0.6864,0.835829558
0.6866,0.835829558
0.6868,0.832089081
0.687,0.835829558
0.6872,0.835829558
0.6874,0.835829558
0.6876,0.835829558
0.6878,0.835829558
0.688,0.835829558
0.6882,0.835829558
0.6884,0.835829558
0.6886,0.835829558
0.6888,0.835829558
0.689,0.835829558
0.6892,0.835829558
0.6894,0.835829558
0.6896,0.835829558
0.6898,0.835829558
0.69,0.835829558
0.6902,0.835829558
0.6904,0.835829558
0.6906,0.835829558
0.6908,0.835829558
0.691,0.835829558
0.6912,0.835829558
0.6914,0.835829558
0.6916,0.832089081
0.6918,0.835829558
0.692,0.835829558
0.6922,0.835829558
0.6924,0.835829558
0.6926,0.835829558
0.6928,0.835829558
0.693,0.832089081
0.6932,0.835829558
0.6934,0.832089081
0.6936,0.835829558
0.6938,0.835829558
0.694,0.835829558
0.6942,0.835829558
0.6944,0.835829558
0.6946,0.835829558
0.6948,0.835829558
0.695,0.832089081
0.6952,0.835829558
0.6954,0.835829558
0.6956,0.835829558
0.6958,0.835829558
0.696,0.835829558
0.6962,0.835829558
0.6964,0.832089081
0.6966,0.832089081
0.6968,0.835829558
0.697,0.835829558
0.6972,0.835829558
0.6974,0.835829558
0.6976,0.835829558
0.6978,0.835829558
0.698,0.832089081
0.6982,0.835829558
0.6984,0.835829558
0.6986,0.832089081
0.6988,0.832089081
0.699,0.832089081
0.6992,0.835829558
0.6994,0.835829558
0.6996,0.832089081
0.6998,0.835829558
0.7,0.835829558
0.7002,0.835829558
0.7004,0.835829558
0.7006,0.835829558
0.7008,0.835829558
0.701,0.835829558
0.7012,0.835829558
0.7014,0.835829558
0.7016,0.835829558
0.7018,0.835829558
0.702,0.835829558
0.7022,0.835829558
0.7024,0.835829558
0.7026,0.835829558
0.7028,0.835829558
0.703,0.835829558
0.7032,0.835829558
0.7034,0.832089081
0.7036,0.835829558
0.7038,0.835829558
0.704,0.835829558
0.7042,0.835829558
0.7044,0.835829558
0.7046,0.835829558
0.7048,0.835829558
0.705,0.835829558
0.7052,0.835829558
0.7054,0.832089081
0.7056,0.832089081
0.7058,0.832089081
0.706,0.835829558
0.7062,0.835829558
0.7064,0.835829558
0.7066,0.835829558
0.7068,0.835829558
0.707,0.835829558
0.7072,0.835829558
0.7074,0.835829558
0.7076,0.835829558
0.7078,0.835829558
0.708,0.832089081
0.7082,0.835829558
0.7084,0.835829558
0.7086,0.835829558
0.7088,0.835829558
0.709,0.835829558
0.7092,0.835829558
0.7094,0.835829558
0.7096,0.835829558
0.7098,0.835829558
0.71,0.832089081
0.7102,0.832089081
0.7104,0.835829558
0.7106,0.835829558
0.7108,0.835829558
0.711,0.835829558
0.7112,0.835829558
0.7114,0.835829558
0.7116,0.835829558
0.7118,0.835829558
0.712,0.835829558
0.7122,0.835829558
0.7124,0.832089081
0.7126,0.835829558
0.7128,0.835829558
0.713,0.835829558
0.7132,0.835829558
0.7134,0.832089081
0.7136,0.835829558
0.7138,0.835829558
0.714,0.832089081
0.7142,0.835829558
0.7144,0.832089081
0.7146,0.832089081
0.7148,0.835829558
0.715,0.835829558
0.7152,0.835829558
0.7154,0.832089081
0.7156,0.835829558
0.7158,0.835829558
0.716,0.832089081
0.7162,0.835829558
0.7164,0.832089081
0.7166,0.835829558
0.7168,0.835829558
0.717,0.832089081
0.7172,0.832089081
0.7174,0.832089081
0.7176,0.835829558
0.7178,0.835829558
0.718,0.832089081
0.7182,0.832089081
0.7184,0.835829558
0.7186,0.835829558
0.7188,0.835829558
0.719,0.835829558
0.7192,0.835829558
0.7194,0.835829558
0.7196,0.832089081
0.7198,0.835829558
0.72,0.835829558
0.7202,0.832089081
0.7204,0.835829558
0.7206,0.835829558
0.7208,0.835829558
0.721,0.835829558
0.7212,0.835829558
0.7214,0.835829558
0.7216,0.835829558
0.7218,0.835829558
0.722,0.835829558
0.7222,0.835829558
0.7224,0.835829558
0.7226,0.835829558
0.7228,0.835829558
0.723,0.835829558
0.7232,0.835829558
0.7234,0.835829558
0.7236,0.835829558
0.7238,0.835829558
0.724,0.835829558
0.7242,0.835829558
0.7244,0.835829558
0.7246,0.832089081
0.7248,0.835829558
0.725,0.835829558
0.7252,0.835829558
0.7254,0.835829558
0.7256,0.835829558
0.7258,0.835829558
0.726,0.832089081
0.7262,0.835829558
0.7264,0.835829558
0.7266,0.835829558
0.7268,0.832089081
0.727,0.832089081
0.7272,0.835829558
0.7274,0.835829558
0.7276,0.832089081
0.7278,0.832089081
0.728,0.835829558
0.7282,0.835829558
0.7284,0.835829558
0.7286,0.835829558
0.7288,0.835829558
0.729,0.835829558
0.7292,0.835829558
0.7294,0.835829558
0.7296,0.835829558
0.7298,0.835829558
0.73,0.835829558
0.7302,0.835829558
0.7304,0.835829558
0.7306,0.835829558
0.7308,0.835829558
0.731,0.835829558
0.7312,0.835829558
0.7314,0.832089081
0.7316,0.835829558
0.7318,0.835829558
0.732,0.835829558
0.7322,0.832089081
0.7324,0.832089081
0.7326,0.835829558
0.7328,0.839570035
0.733,0.850791465
0.7332,0.862012896
0.7334,0.888196234
0.7336,1.067739124
0.7338,1.726063053
0.734,2.466677473
0.7342,3.173627601
0.7344,3.835692006
0.7346,4.407984967
0.7348,4.796994562
0.735,4.939132683
0.7352,4.95409459
0.7354,4.957835067
0.7356,4.957835067
0.7358,4.957835067
0.736,4.957835067
0.7362,4.957835067
0.7364,4.957835067
0.7366,4.957835067
0.7368,4.957835067
0.737,4.957835067
0.7372,4.957835067
0.7374,4.957835067
0.7376,4.957835067
0.7378,4.957835067
0.738,4.957835067
0.7382,4.957835067
0.7384,4.957835067
0.7386,4.957835067
0.7388,4.957835067
0.739,4.957835067
0.7392,4.957835067
0.7394,4.957835067
0.7396,4.957835067
0.7398,4.957835067
0.74,4.957835067
0.7402,4.957835067
0.7404,4.957835067
0.7406,4.957835067
0.7408,4.957835067
0.741,4.957835067
0.7412,4.957835067
0.7414,4.957835067
0.7416,4.957835067
0.7418,4.957835067
0.742,4.95409459
0.7422,4.957835067
0.7424,4.957835067
0.7426,4.95409459
0.7428,4.95409459
0.743,4.957835067
0.7432,4.957835067
0.7434,4.946613636
0.7436,4.767070747
0.7438,4.220961124
0.744,3.40179669
0.7442,2.571410825
0.7444,1.785910683
0.7446,1.108884369
0.7448,0.888196234
0.745,0.862012896
0.7452,0.850791465
0.7454,0.843310512
0.7456,0.835829558
0.7458,0.835829558
0.746,0.832089081
0.7462,0.832089081
0.7464,0.835829558
0.7466,0.832089081
0.7468,0.832089081
0.747,0.832089081
0.7472,0.832089081
0.7474,0.835829558
0.7476,0.832089081
0.7478,0.832089081
0.748,0.835829558
0.7482,0.835829558
0.7484,0.835829558
0.7486,0.835829558
0.7488,0.835829558
0.749,0.835829558
0.7492,0.832089081
0.7494,0.832089081
0.7496,0.832089081
0.7498,0.832089081
0.75,0.832089081
0.7502,0.832089081
0.7504,0.832089081
0.7506,0.832089081
0.7508,0.832089081
0.751,0.835829558
0.7512,0.835829558
0.7514,0.835829558
0.7516,0.832089081
0.7518,0.832089081
0.752,0.832089081
0.7522,0.832089081
0.7524,0.832089081
0.7526,0.832089081
0.7528,0.832089081
0.753,0.835829558
0.7532,0.835829558
0.7534,0.835829558
0.7536,0.832089081
0.7538,0.832089081
0.754,0.835829558
0.7542,0.835829558
0.7544,0.832089081
0.7546,0.832089081
0.7548,0.832089081
0.755,0.835829558
0.7552,0.835829558
0.7554,0.832089081
0.7556,0.835829558
0.7558,0.832089081
0.756,0.832089081
0.7562,0.835829558
0.7564,0.832089081
0.7566,0.835829558
0.7568,0.832089081
0.757,0.832089081
0.7572,0.835829558
0.7574,0.835829558
0.7576,0.835829558
0.7578,0.835829558
0.758,0.832089081
0.7582,0.835829558
0.7584,0.835829558
0.7586,0.835829558
0.7588,0.835829558
0.759,0.835829558
0.7592,0.835829558
0.7594,0.832089081
0.7596,0.835829558
0.7598,0.835829558
0.76,0.835829558
0.7602,0.835829558
0.7604,0.832089081
0.7606,0.832089081
0.7608,0.832089081
0.761,0.835829558
0.7612,0.835829558
0.7614,0.835829558
0.7616,0.835829558
0.7618,0.835829558
0.762,0.835829558
0.7622,0.835829558
0.7624,0.835829558
0.7626,0.835829558
0.7628,0.835829558
0.763,0.835829558
0.7632,0.835829558
0.7634,0.835829558
0.7636,0.835829558
0.7638,0.835829558
0.764,0.835829558
0.7642,0.835829558
0.7644,0.835829558
0.7646,0.835829558
0.7648,0.835829558
0.765,0.835829558
0.7652,0.835829558
0.7654,0.835829558
0.7656,0.835829558
0.7658,0.835829558
0.766,0.835829558
0.7662,0.832089081
0.7664,0.835829558
0.7666,0.835829558
0.7668,0.835829558
0.767,0.835829558
0.7672,0.835829558
0.7674,0.835829558
0.7676,0.835829558
0.7678,0.835829558
0.768,0.835829558
0.7682,0.835829558
0.7684,0.835829558
0.7686,0.835829558
0.7688,0.835829558
0.769,0.835829558
0.7692,0.835829558
0.7694,0.835829558
0.7696,0.835829558
0.7698,0.835829558
0.77,0.835829558
0.7702,0.835829558
0.7704,0.835829558
0.7706,0.835829558
0.7708,0.835829558
0.771,0.835829558
0.7712,0.835829558
0.7714,0.832089081
0.7716,0.835829558
0.7718,0.835829558
0.772,0.835829558
0.7722,0.835829558
0.7724,0.835829558
0.7726,0.835829558
0.7728,0.835829558
0.773,0.835829558
0.7732,0.835829558
0.7734,0.835829558
0.7736,0.835829558
0.7738,0.835829558
0.774,0.835829558
0.7742,0.835829558
0.7744,0.835829558
0.7746,0.835829558
0.7748,0.835829558
0.775,0.832089081
0.7752,0.835829558
0.7754,0.835829558
0.7756,0.835829558
0.7758,0.835829558
0.776,0.835829558
0.7762,0.835829558
0.7764,0.835829558
0.7766,0.835829558
0.7768,0.832089081
0.777,0.835829558
0.7772,0.835829558
0.7774,0.832089081
0.7776,0.835829558
0.7778,0.835829558
0.778,0.835829558
0.7782,0.835829558
0.7784,0.835829558
0.7786,0.835829558
0.7788,0.835829558
0.779,0.835829558
0.7792,0.835829558
0.7794,0.835829558
0.7796,0.835829558
0.7798,0.835829558
0.78,0.835829558
0.7802,0.832089081
0.7804,0.835829558
0.7806,0.835829558
0.7808,0.832089081
0.781,0.835829558
0.7812,0.835829558
0.7814,0.835829558
0.7816,0.835829558
0.7818,0.835829558
0.782,0.835829558
0.7822,0.835829558
0.7824,0.835829558
0.7826,0.835829558
0.7828,0.835829558
0.783,0.835829558
0.7832,0.835829558
0.7834,0.835829558
0.7836,0.835829558
0.7838,0.835829558
0.784,0.835829558
0.7842,0.835829558
0.7844,0.835829558
0.7846,0.835829558
0.7848,0.835829558
0.785,0.835829558
0.7852,0.835829558
0.7854,0.835829558
0.7856,0.835829558
0.7858,0.835829558
0.786,0.835829558
0.7862,0.835829558
0.7864,0.835829558
0.7866,0.835829558
0.7868,0.835829558
0.787,0.835829558
0.7872,0.835829558
0.7874,0.835829558
0.7876,0.835829558
0.7878,0.835829558
0.788,0.835829558
0.7882,0.835829558
0.7884,0.835829558
0.7886,0.835829558
0.7888,0.835829558
0.789,0.835829558
0.7892,0.832089081
0.7894,0.832089081
0.7896,0.832089081
0.7898,0.835829558
0.79,0.835829558
0.7902,0.835829558
0.7904,0.835829558
0.7906,0.832089081
0.7908,0.835829558
0.791,0.835829558
0.7912,0.835829558
0.7914,0.835829558
0.7916,0.835829558
0.7918,0.835829558
0.792,0.835829558
0.7922,0.835829558
0.7924,0.835829558
0.7926,0.835829558
0.7928,0.835829558
0.793,0.835829558
0.7932,0.835829558
0.7934,0.835829558
0.7936,0.835829558
0.7938,0.835829558
0.794,0.835829558
0.7942,0.835829558
0.7944,0.835829558
0.7946,0.832089081
0.7948,0.835829558
0.795,0.835829558
0.7952,0.835829558
0.7954,0.832089081
0.7956,0.835829558
0.7958,0.835829558
0.796,0.835829558
0.7962,0.835829558
0.7964,0.835829558
0.7966,0.835829558
0.7968,0.835829558
0.797,0.835829558
0.7972,0.835829558
0.7974,0.835829558
0.7976,0.835829558
0.7978,0.835829558
0.798,0.835829558
0.7982,0.835829558
0.7984,0.835829558
0.7986,0.835829558
0.7988,0.835829558
0.799,0.835829558
0.7992,0.835829558
0.7994,0.835829558
0.7996,0.835829558
0.7998,0.835829558
0.8,0.835829558
0.8002,0.835829558
0.8004,0.835829558
0.8006,0.835829558
0.8008,0.835829558
0.801,0.835829558
0.8012,0.835829558
0.8014,0.835829558
0.8016,0.835829558
0.8018,0.835829558
0.802,0.835829558
0.8022,0.835829558
0.8024,0.835829558
0.8026,0.835829558
0.8028,0.835829558
0.803,0.835829558
0.8032,0.835829558
0.8034,0.835829558
0.8036,0.835829558
0.8038,0.835829558
0.804,0.835829558
0.8042,0.835829558
0.8044,0.835829558
0.8046,0.835829558
0.8048,0.835829558
0.805,0.835829558
0.8052,0.835829558
0.8054,0.832089081
0.8056,0.835829558
0.8058,0.832089081
0.806,0.835829558
0.8062,0.835829558
0.8064,0.835829558
0.8066,0.835829558
0.8068,0.835829558
0.807,0.835829558
0.8072,0.832089081
0.8074,0.832089081
0.8076,0.835829558
0.8078,0.835829558
0.808,0.832089081
0.8082,0.835829558
0.8084,0.835829558
0.8086,0.835829558
0.8088,0.835829558
0.809,0.835829558
0.8092,0.835829558
0.8094,0.835829558
0.8096,0.835829558
0.8098,0.835829558
0.81,0.832089081
0.8102,0.835829558
0.8104,0.835829558
0.8106,0.835829558
0.8108,0.835829558
0.811,0.835829558
0.8112,0.835829558
0.8114,0.835829558
0.8116,0.835829558
0.8118,0.835829558
0.812,0.835829558
0.8122,0.835829558
0.8124,0.835829558
0.8126,0.835829558
0.8128,0.835829558
0.813,0.835829558
0.8132,0.835829558
0.8134,0.835829558
0.8136,0.835829558
0.8138,0.835829558
0.814,0.835829558
0.8142,0.835829558
0.8144,0.835829558
0.8146,0.835829558
0.8148,0.835829558
0.815,0.835829558
0.8152,0.835829558
0.8154,0.835829558
0.8156,0.835829558
0.8158,0.832089081
0.816,0.835829558
0.8162,0.835829558
0.8164,0.835829558
0.8166,0.835829558
0.8168,0.835829558
0.817,0.832089081
0.8172,0.835829558
0.8174,0.835829558
0.8176,0.835829558
0.8178,0.835829558
0.818,0.832089081
0.8182,0.832089081
0.8184,0.835829558
0.8186,0.832089081
0.8188,0.832089081
0.819,0.835829558
0.8192,0.835829558
0.8194,0.835829558
0.8196,0.835829558
0.8198,0.835829558
0.82,0.835829558
0.8202,0.835829558
0.8204,0.835829558
0.8206,0.835829558
0.8208,0.835829558
0.821,0.835829558
0.8212,0.835829558
0.8214,0.835829558
0.8216,0.835829558
0.8218,0.835829558
0.822,0.835829558
0.8222,0.835829558
0.8224,0.835829558
0.8226,0.835829558
0.8228,0.835829558
0.823,0.835829558
0.8232,0.835829558
0.8234,0.835829558
0.8236,0.835829558
0.8238,0.835829558
0.824,0.832089081
0.8242,0.835829558
0.8244,0.835829558
0.8246,0.832089081
0.8248,0.835829558
0.825,0.832089081
0.8252,0.832089081
0.8254,0.835829558
0.8256,0.835829558
0.8258,0.835829558
0.826,0.835829558
0.8262,0.835829558
0.8264,0.835829558
0.8266,0.832089081
0.8268,0.835829558
0.827,0.835829558
0.8272,0.835829558
0.8274,0.835829558
0.8276,0.832089081
0.8278,0.835829558
0.828,0.832089081
0.8282,0.835829558
0.8284,0.835829558
0.8286,0.832089081
0.8288,0.835829558
0.829,0.835829558
0.8292,0.835829558
0.8294,0.835829558
0.8296,0.835829558
0.8298,0.832089081
0.83,0.832089081
0.8302,0.835829558
0.8304,0.835829558
0.8306,0.835829558
0.8308,0.835829558
0.831,0.835829558
0.8312,0.835829558
0.8314,0.835829558
0.8316,0.835829558
0.8318,0.835829558
0.832,0.835829558
0.8322,0.835829558
0.8324,0.835829558
0.8326,0.835829558
0.8328,0.832089081
0.833,0.835829558
0.8332,0.835829558
0.8334,0.835829558
0.8336,0.832089081
0.8338,0.835829558
0.834,0.835829558
0.8342,0.835829558
0.8344,0.835829558
0.8346,0.835829558
0.8348,0.835829558
0.835,0.835829558
0.8352,0.835829558
0.8354,0.832089081
0.8356,0.835829558
0.8358,0.835829558
0.836,0.835829558
0.8362,0.832089081
0.8364,0.835829558
0.8366,0.835829558
0.8368,0.835829558
0.837,0.835829558
0.8372,0.832089081
0.8374,0.835829558
0.8376,0.835829558
0.8378,0.835829558
0.838,0.835829558
0.8382,0.835829558
0.8384,0.835829558
0.8386,0.835829558
0.8388,0.835829558
0.839,0.835829558
0.8392,0.832089081
0.8394,0.835829558
0.8396,0.835829558
0.8398,0.832089081
0.84,0.835829558
0.8402,0.835829558
0.8404,0.835829558
0.8406,0.835829558
0.8408,0.835829558
0.841,0.835829558
0.8412,0.835829558
0.8414,0.835829558
0.8416,0.835829558
0.8418,0.835829558
0.842,0.835829558
0.8422,0.835829558
0.8424,0.835829558
0.8426,0.835829558
0.8428,0.835829558
0.843,0.835829558
0.8432,0.835829558
0.8434,0.835829558
0.8436,0.835829558
0.8438,0.835829558
0.844,0.835829558
0.8442,0.835829558
0.8444,0.835829558
0.8446,0.835829558
0.8448,0.835829558
0.845,0.835829558
0.8452,0.835829558
0.8454,0.835829558
0.8456,0.835829558
0.8458,0.835829558
0.846,0.835829558
0.8462,0.835829558
0.8464,0.835829558
0.8466,0.835829558
0.8468,0.832089081
0.847,0.832089081
0.8472,0.835829558
0.8474,0.835829558
0.8476,0.835829558
0.8478,0.835829558
0.848,0.832089081
0.8482,0.832089081
0.8484,0.835829558
0.8486,0.835829558
0.8488,0.835829558
0.849,0.835829558
0.8492,0.835829558
0.8494,0.835829558
0.8496,0.835829558
0.8498,0.835829558
0.85,0.835829558
0.8502,0.835829558
0.8504,0.832089081
0.8506,0.832089081
0.8508,0.835829558
0.851,0.835829558
0.8512,0.832089081
0.8514,0.835829558
0.8516,0.835829558
0.8518,0.835829558
0.852,0.835829558
0.8522,0.835829558
0.8524,0.835829558
0.8526,0.835829558
0.8528,0.835829558
0.853,0.835829558
0.8532,0.835829558
0.8534,0.835829558
0.8536,0.835829558
0.8538,0.835829558
0.854,0.835829558
0.8542,0.835829558
0.8544,0.847050989
0.8546,0.873234327
0.8548,1.052777216
0.855,1.617589223
0.8552,2.309577444
0.8554,3.046451387
0.8556,3.738439608
0.8558,4.295770661
0.856,4.681039779
0.8562,4.875544576
0.8564,4.942873159
0.8566,4.95409459
0.8568,4.957835067
0.857,4.957835067
0.8572,4.957835067
0.8574,4.957835067
0.8576,4.957835067
0.8578,4.957835067
0.858,4.957835067
0.8582,4.957835067
0.8584,4.957835067
0.8586,4.957835067
0.8588,4.957835067
0.859,4.957835067
0.8592,4.957835067
0.8594,4.957835067
0.8596,4.957835067
0.8598,4.957835067
0.86,4.957835067
0.8602,4.957835067
0.8604,4.957835067
0.8606,4.957835067
0.8608,4.957835067
0.861,4.957835067
0.8612,4.957835067
0.8614,4.957835067
0.8616,4.957835067
0.8618,4.957835067
0.862,4.957835067
0.8622,4.957835067
0.8624,4.957835067
0.8626,4.957835067
0.8628,4.957835067
0.863,4.957835067
0.8632,4.957835067
0.8634,4.957835067
0.8636,4.95409459
0.8638,4.897987437
0.864,4.647375487
0.8642,4.179815878
0.8644,3.573858626
0.8646,2.908053743
0.8648,2.208584569
0.865,1.535298732
0.8652,1.011631971
0.8654,0.865753373
0.8656,0.843310512
0.8658,0.835829558
0.866,0.835829558
0.8662,0.835829558
0.8664,0.835829558
0.8666,0.835829558
0.8668,0.835829558
0.867,0.835829558
0.8672,0.835829558
0.8674,0.835829558
0.8676,0.835829558
0.8678,0.835829558
0.868,0.835829558
0.8682,0.835829558
0.8684,0.835829558
0.8686,0.835829558
0.8688,0.835829558
0.869,0.835829558
0.8692,0.835829558
0.8694,0.835829558
0.8696,0.835829558
0.8698,0.835829558
0.87,0.835829558
0.8702,0.835829558
0.8704,0.835829558
0.8706,0.835829558
0.8708,0.835829558
0.871,0.835829558
0.8712,0.835829558
0.8714,0.835829558
0.8716,0.835829558
0.8718,0.835829558
0.872,0.835829558
0.8722,0.835829558
0.8724,0.832089081
0.8726,0.835829558
0.8728,0.835829558
0.873,0.832089081
0.8732,0.835829558
0.8734,0.835829558
0.8736,0.835829558
0.8738,0.832089081
0.874,0.835829558
0.8742,0.835829558
0.8744,0.835829558
0.8746,0.835829558
0.8748,0.835829558
0.875,0.835829558
0.8752,0.835829558
0.8754,0.835829558
0.8756,0.835829558
0.8758,0.835829558
0.876,0.835829558
0.8762,0.835829558
0.8764,0.835829558
0.8766,0.835829558
0.8768,0.835829558
0.877,0.835829558
0.8772,0.835829558
0.8774,0.835829558
0.8776,0.835829558
0.8778,0.835829558
0.878,0.835829558
0.8782,0.835829558
0.8784,0.835829558
0.8786,0.832089081
0.8788,0.835829558
0.879,0.835829558
0.8792,0.835829558
0.8794,0.835829558
0.8796,0.835829558
0.8798,0.835829558
0.88,0.832089081
0.8802,0.835829558
0.8804,0.835829558
0.8806,0.832089081
0.8808,0.835829558
0.881,0.832089081
0.8812,0.835829558
0.8814,0.835829558
0.8816,0.835829558
0.8818,0.832089081
0.882,0.835829558
0.8822,0.835829558
0.8824,0.835829558
0.8826,0.835829558
0.8828,0.835829558
0.883,0.835829558
0.8832,0.835829558
0.8834,0.835829558
0.8836,0.835829558
0.8838,0.835829558
0.884,0.835829558
0.8842,0.835829558
0.8844,0.835829558
0.8846,0.835829558
0.8848,0.835829558
0.885,0.835829558
0.8852,0.835829558
0.8854,0.835829558
0.8856,0.835829558
0.8858,0.835829558
0.886,0.835829558
0.8862,0.835829558
0.8864,0.835829558
0.8866,0.835829558
0.8868,0.832089081
0.887,0.835829558
0.8872,0.835829558
0.8874,0.835829558
0.8876,0.835829558
0.8878,0.835829558
0.888,0.835829558
0.8882,0.835829558
0.8884,0.835829558
0.8886,0.835829558
0.8888,0.835829558
0.889,0.835829558
0.8892,0.835829558
0.8894,0.835829558
0.8896,0.835829558
0.8898,0.835829558
0.89,0.832089081
0.8902,0.835829558
0.8904,0.835829558
0.8906,0.835829558
0.8908,0.835829558
0.891,0.835829558
0.8912,0.835829558
0.8914,0.835829558
0.8916,0.835829558
0.8918,0.835829558
0.892,0.835829558
0.8922,0.835829558
0.8924,0.835829558
0.8926,0.835829558
0.8928,0.835829558
0.893,0.835829558
0.8932,0.835829558
0.8934,0.835829558
0.8936,0.835829558
0.8938,0.835829558
0.894,0.835829558
0.8942,0.835829558
0.8944,0.835829558
0.8946,0.835829558
0.8948,0.832089081
0.895,0.832089081
0.8952,0.835829558
0.8954,0.835829558
0.8956,0.835829558
0.8958,0.835829558
0.896,0.835829558
0.8962,0.835829558
0.8964,0.832089081
0.8966,0.835829558
0.8968,0.835829558
0.897,0.835829558
0.8972,0.835829558
0.8974,0.835829558
0.8976,0.835829558
0.8978,0.835829558
0.898,0.835829558
0.8982,0.835829558
0.8984,0.835829558
0.8986,0.835829558
0.8988,0.835829558
0.899,0.835829558
0.8992,0.835829558
0.8994,0.835829558
0.8996,0.835829558
0.8998,0.835829558
0.9,0.835829558
0.9002,0.835829558
0.9004,0.835829558
0.9006,0.835829558
0.9008,0.835829558
0.901,0.835829558
0.9012,0.835829558
0.9014,0.835829558
0.9016,0.835829558
0.9018,0.835829558
0.902,0.835829558
0.9022,0.835829558
0.9024,0.835829558
0.9026,0.835829558
0.9028,0.835829558
0.903,0.835829558
0.9032,0.835829558
0.9034,0.835829558
0.9036,0.835829558
0.9038,0.835829558
0.904,0.835829558
0.9042,0.835829558
0.9044,0.835829558
0.9046,0.835829558
0.9048,0.832089081
0.905,0.832089081
0.9052,0.832089081
0.9054,0.835829558
0.9056,0.835829558
0.9058,0.835829558
0.906,0.835829558
0.9062,0.835829558
0.9064,0.835829558
0.9066,0.835829558
0.9068,0.832089081
0.907,0.835829558
0.9072,0.835829558
0.9074,0.835829558
0.9076,0.832089081
0.9078,0.835829558
0.908,0.835829558
0.9082,0.835829558
0.9084,0.835829558
0.9086,0.835829558
0.9088,0.835829558
0.909,0.835829558
0.9092,0.835829558
0.9094,0.835829558
0.9096,0.835829558
0.9098,0.835829558
0.91,0.835829558
0.9102,0.835829558
0.9104,0.835829558
0.9106,0.832089081
0.9108,0.835829558
0.911,0.835829558
0.9112,0.835829558
0.9114,0.835829558
0.9116,0.835829558
0.9118,0.835829558
0.912,0.835829558
0.9122,0.835829558
0.9124,0.835829558
0.9126,0.835829558
0.9128,0.835829558
0.913,0.835829558
0.9132,0.835829558
0.9134,0.835829558
0.9136,0.835829558
0.9138,0.835829558
0.914,0.835829558
0.9142,0.835829558
0.9144,0.835829558
0.9146,0.835829558
0.9148,0.835829558
0.915,0.835829558
0.9152,0.835829558
0.9154,0.835829558
0.9156,0.835829558
0.9158,0.835829558
0.916,0.835829558
0.9162,0.835829558
0.9164,0.835829558
0.9166,0.835829558
0.9168,0.835829558
0.917,0.835829558
0.9172,0.832089081
0.9174,0.835829558
0.9176,0.835829558
0.9178,0.835829558
0.918,0.835829558
0.9182,0.835829558
0.9184,0.835829558
0.9186,0.835829558
0.9188,0.835829558
0.919,0.835829558
0.9192,0.835829558
0.9194,0.835829558
0.9196,0.835829558
0.9198,0.835829558
0.92,0.835829558
0.9202,0.835829558
0.9204,0.835829558
0.9206,0.835829558
0.9208,0.835829558
0.921,0.835829558
0.9212,0.835829558
0.9214,0.835829558
0.9216,0.835829558
0.9218,0.835829558
0.922,0.835829558
0.9222,0.835829558
0.9224,0.835829558
0.9226,0.835829558
0.9228,0.835829558
0.923,0.835829558
0.9232,0.835829558
0.9234,0.835829558
0.9236,0.835829558
0.9238,0.832089081
0.924,0.835829558
0.9242,0.835829558
0.9244,0.835829558
0.9246,0.832089081
0.9248,0.832089081
0.925,0.832089081
0.9252,0.832089081
0.9254,0.835829558
0.9256,0.835829558
0.9258,0.835829558
0.926,0.832089081
0.9262,0.832089081
0.9264,0.835829558
0.9266,0.832089081
0.9268,0.835829558
0.927,0.835829558
0.9272,0.832089081
0.9274,0.832089081
0.9276,0.835829558
0.9278,0.835829558
0.928,0.835829558
0.9282,0.835829558
0.9284,0.835829558
0.9286,0.832089081
0.9288,0.835829558
0.929,0.835829558
0.9292,0.832089081
0.9294,0.835829558
0.9296,0.835829558
0.9298,0.835829558
0.93,0.835829558
0.9302,0.835829558
0.9304,0.835829558
0.9306,0.835829558
0.9308,0.835829558
0.931,0.835829558
0.9312,0.835829558
0.9314,0.835829558
0.9316,0.832089081
0.9318,0.835829558
0.932,0.835829558
0.9322,0.832089081
0.9324,0.835829558
0.9326,0.835829558
0.9328,0.835829558
0.933,0.835829558
0.9332,0.835829558
0.9334,0.835829558
0.9336,0.835829558
0.9338,0.835829558
0.934,0.835829558
0.9342,0.835829558
0.9344,0.832089081
0.9346,0.835829558
0.9348,0.835829558
0.935,0.835829558
0.9352,0.832089081
0.9354,0.835829558
0.9356,0.835829558
0.9358,0.832089081
0.936,0.835829558
0.9362,0.835829558
0.9364,0.835829558
0.9366,0.835829558
0.9368,0.835829558
0.937,0.835829558
0.9372,0.835829558
0.9374,0.835829558
0.9376,0.835829558
0.9378,0.835829558
0.938,0.835829558
0.9382,0.835829558
0.9384,0.835829558
0.9386,0.835829558
0.9388,0.835829558
0.939,0.835829558
0.9392,0.835829558
0.9394,0.835829558
0.9396,0.835829558
0.9398,0.832089081
0.94,0.835829558
0.9402,0.835829558
0.9404,0.835829558
0.9406,0.835829558
0.9408,0.835829558
0.941,0.835829558
0.9412,0.835829558
0.9414,0.835829558
0.9416,0.835829558
0.9418,0.835829558
0.942,0.835829558
0.9422,0.835829558
0.9424,0.835829558
0.9426,0.835829558
0.9428,0.835829558
0.943,0.835829558
0.9432,0.835829558
0.9434,0.835829558
0.9436,0.835829558
0.9438,0.835829558
0.944,0.835829558
0.9442,0.835829558
0.9444,0.835829558
0.9446,0.835829558
0.9448,0.835829558
0.945,0.832089081
0.9452,0.835829558
0.9454,0.835829558
0.9456,0.835829558
0.9458,0.835829558
0.946,0.835829558
0.9462,0.835829558
0.9464,0.835829558
0.9466,0.835829558
0.9468,0.835829558
0.947,0.835829558
0.9472,0.835829558
0.9474,0.835829558
0.9476,0.835829558
0.9478,0.835829558
0.948,0.835829558
0.9482,0.835829558
0.9484,0.835829558
0.9486,0.835829558
0.9488,0.835829558
0.949,0.835829558
0.9492,0.835829558
0.9494,0.835829558
0.9496,0.835829558
0.9498,0.835829558
0.95,0.835829558
0.9502,0.835829558
0.9504,0.835829558
0.9506,0.835829558
0.9508,0.835829558
0.951,0.832089081
0.9512,0.835829558
0.9514,0.835829558
0.9516,0.835829558
0.9518,0.835829558
0.952,0.835829558
0.9522,0.835829558
0.9524,0.835829558
0.9526,0.835829558
0.9528,0.835829558
0.953,0.835829558
0.9532,0.835829558
0.9534,0.835829558
0.9536,0.835829558
0.9538,0.835829558
0.954,0.835829558
0.9542,0.835829558
0.9544,0.835829558
0.9546,0.835829558
0.9548,0.835829558
0.955,0.835829558
0.9552,0.835829558
0.9554,0.835829558
0.9556,0.835829558
0.9558,0.835829558
0.956,0.835829558
0.9562,0.835829558
0.9564,0.835829558
0.9566,0.835829558
0.9568,0.835829558
0.957,0.835829558
0.9572,0.832089081
0.9574,0.835829558
0.9576,0.832089081
0.9578,0.832089081
0.958,0.835829558
0.9582,0.835829558
0.9584,0.835829558
0.9586,0.832089081
0.9588,0.835829558
0.959,0.835829558
0.9592,0.835829558
0.9594,0.835829558
0.9596,0.832089081
0.9598,0.835829558
0.96,0.835829558
0.9602,0.835829558
0.9604,0.835829558
0.9606,0.835829558
0.9608,0.835829558
0.961,0.835829558
0.9612,0.835829558
0.9614,0.835829558
0.9616,0.835829558
0.9618,0.835829558
0.962,0.835829558
0.9622,0.835829558
0.9624,0.835829558
0.9626,0.835829558
0.9628,0.835829558
0.963,0.835829558
0.9632,0.835829558
0.9634,0.835829558
0.9636,0.835829558
0.9638,0.843310512
0.964,0.858272419
0.9642,0.914379572
0.9644,1.389420134
0.9646,2.167439323
0.9648,2.85194659
0.965,3.499049088
0.9652,4.14241111
0.9654,4.647375487
0.9656,4.89424696
0.9658,4.946613636
0.966,4.950354113
0.9662,4.95409459
0.9664,4.95409459
0.9666,4.95409459
0.9668,4.95409459
0.967,4.957835067
0.9672,4.957835067
0.9674,4.957835067
0.9676,4.95409459
0.9678,4.95409459
0.968,4.957835067
0.9682,4.95409459
0.9684,4.957835067
0.9686,4.957835067
0.9688,4.957835067
0.969,4.957835067
0.9692,4.957835067
0.9694,4.957835067
0.9696,4.957835067
0.9698,4.957835067
0.97,4.957835067
0.9702,4.957835067
0.9704,4.957835067
0.9706,4.95409459
0.9708,4.95409459
0.971,4.95409459
0.9712,4.95409459
0.9714,4.95409459
0.9716,4.95409459
0.9718,4.95409459
0.972,4.935392206
0.9722,4.759589793
0.9724,4.176075401
0.9726,3.28210143
0.9728,2.29087506
0.973,1.415603473
0.9732,0.92934148
0.9734,0.86949385
0.9736,0.854531942
0.9738,0.839570035
0.974,0.835829558
0.9742,0.835829558
0.9744,0.832089081
0.9746,0.832089081
0.9748,0.832089081
0.975,0.832089081
0.9752,0.832089081
0.9754,0.832089081
0.9756,0.835829558
0.9758,0.835829558
0.976,0.835829558
0.9762,0.835829558
0.9764,0.835829558
0.9766,0.835829558
0.9768,0.832089081
0.977,0.835829558
0.9772,0.835829558
0.9774,0.835829558
0.9776,0.835829558
0.9778,0.835829558
0.978,0.835829558
0.9782,0.835829558
0.9784,0.835829558
0.9786,0.835829558
0.9788,0.835829558
0.979,0.835829558
0.9792,0.835829558
0.9794,0.832089081
0.9796,0.832089081
0.9798,0.835829558
0.98,0.835829558
0.9802,0.835829558
0.9804,0.835829558
0.9806,0.835829558
0.9808,0.835829558
0.981,0.835829558
0.9812,0.835829558
0.9814,0.832089081
0.9816,0.835829558
0.9818,0.835829558
0.982,0.835829558
0.9822,0.835829558
0.9824,0.835829558
0.9826,0.835829558
0.9828,0.835829558
0.983,0.835829558
0.9832,0.835829558
0.9834,0.835829558
0.9836,0.835829558
0.9838,0.835829558
0.984,0.835829558
0.9842,0.835829558
0.9844,0.835829558
0.9846,0.835829558
0.9848,0.835829558
0.985,0.835829558
0.9852,0.835829558
0.9854,0.835829558
0.9856,0.832089081
0.9858,0.832089081
0.986,0.835829558
0.9862,0.835829558
0.9864,0.835829558
0.9866,0.835829558
0.9868,0.835829558
0.987,0.835829558
0.9872,0.835829558
0.9874,0.835829558
0.9876,0.835829558
0.9878,0.835829558
0.988,0.835829558
0.9882,0.835829558
0.9884,0.835829558
0.9886,0.835829558
0.9888,0.835829558
0.989,0.835829558
0.9892,0.835829558
0.9894,0.835829558
0.9896,0.835829558
0.9898,0.835829558
0.99,0.835829558
0.9902,0.835829558
0.9904,0.835829558
0.9906,0.835829558
0.9908,0.835829558
0.991,0.835829558
0.9912,0.835829558
0.9914,0.835829558
0.9916,0.835829558
0.9918,0.835829558
0.992,0.835829558
0.9922,0.835829558
0.9924,0.835829558
0.9926,0.832089081
0.9928,0.832089081
0.993,0.835829558
0.9932,0.835829558
0.9934,0.835829558
0.9936,0.835829558
0.9938,0.835829558
0.994,0.835829558
0.9942,0.835829558
0.9944,0.835829558
0.9946,0.835829558
0.9948,0.835829558
0.995,0.835829558
0.9952,0.835829558
0.9954,0.835829558
0.9956,0.835829558
0.9958,0.835829558
0.996,0.835829558
0.9962,0.835829558
0.9964,0.835829558
0.9966,0.835829558
0.9968,0.835829558
0.997,0.835829558
0.9972,0.835829558
0.9974,0.835829558
0.9976,0.832089081
0.9978,0.835829558
0.998,0.832089081
0.9982,0.835829558
0.9984,0.835829558
0.9986,0.835829558
0.9988,0.835829558
0.999,0.835829558
0.9992,0.835829558
0.9994,0.835829558
0.9996,0.835829558
0.9998,0.835829558
1,0.835829558
1.0002,0.835829558
1.0004,0.835829558
1.0006,0.832089081
1.0008,0.835829558
1.001,0.835829558
1.0012,0.835829558
1.0014,0.835829558
1.0016,0.835829558
1.0018,0.835829558
1.002,0.835829558
1.0022,0.835829558
1.0024,0.835829558
1.0026,0.835829558
1.0028,0.835829558
1.003,0.832089081
1.0032,0.832089081
1.0034,0.832089081
1.0036,0.835829558
1.0038,0.835829558
1.004,0.835829558
1.0042,0.832089081
1.0044,0.832089081
1.0046,0.835829558
1.0048,0.835829558
1.005,0.835829558
1.0052,0.835829558
1.0054,0.835829558
1.0056,0.835829558
1.0058,0.832089081
1.006,0.835829558
1.0062,0.835829558
1.0064,0.832089081
1.0066,0.835829558
1.0068,0.832089081
1.007,0.835829558
1.0072,0.835829558
1.0074,0.832089081
1.0076,0.835829558
1.0078,0.835829558
1.008,0.835829558
1.0082,0.832089081
1.0084,0.832089081
1.0086,0.835829558
1.0088,0.835829558
1.009,0.835829558
1.0092,0.832089081
1.0094,0.835829558
1.0096,0.835829558
1.0098,0.835829558
1.01,0.832089081
1.0102,0.832089081
1.0104,0.832089081
1.0106,0.835829558
1.0108,0.832089081
1.011,0.835829558
1.0112,0.835829558
1.0114,0.832089081
1.0116,0.835829558
1.0118,0.835829558
1.012,0.835829558
1.0122,0.835829558
1.0124,0.835829558
1.0126,0.835829558
1.0128,0.835829558
1.013,0.835829558
1.0132,0.835829558
1.0134,0.835829558
1.0136,0.835829558
1.0138,0.835829558
1.014,0.835829558
1.0142,0.832089081
1.0144,0.835829558
1.0146,0.835829558
1.0148,0.835829558
1.015,0.835829558
1.0152,0.835829558
1.0154,0.835829558
1.0156,0.832089081
1.0158,0.835829558
1.016,0.832089081
1.0162,0.835829558
1.0164,0.835829558
1.0166,0.832089081
1.0168,0.835829558
1.017,0.835829558
1.0172,0.832089081
1.0174,0.835829558
1.0176,0.835829558
1.0178,0.832089081
1.018,0.832089081
1.0182,0.835829558
1.0184,0.835829558
1.0186,0.832089081
1.0188,0.832089081
1.019,0.832089081
1.0192,0.832089081
1.0194,0.835829558
1.0196,0.835829558
1.0198,0.835829558
1.02,0.832089081
1.0202,0.835829558
1.0204,0.835829558
1.0206,0.835829558
1.0208,0.835829558
1.021,0.832089081
1.0212,0.832089081
1.0214,0.835829558
1.0216,0.832089081
1.0218,0.835829558
1.022,0.835829558
1.0222,0.835829558
1.0224,0.835829558
1.0226,0.835829558
1.0228,0.835829558
1.023,0.835829558
1.0232,0.835829558
1.0234,0.835829558
1.0236,0.835829558
1.0238,0.835829558
1.024,0.835829558
1.0242,0.835829558
1.0244,0.835829558
1.0246,0.835829558
1.0248,0.835829558
1.025,0.835829558
1.0252,0.835829558
1.0254,0.835829558
1.0256,0.832089081
1.0258,0.835829558
1.026,0.835829558
1.0262,0.835829558
1.0264,0.835829558
1.0266,0.835829558
1.0268,0.835829558
1.027,0.835829558
1.0272,0.835829558
1.0274,0.835829558
1.0276,0.835829558
1.0278,0.835829558
1.028,0.835829558
1.0282,0.835829558
1.0284,0.835829558
1.0286,0.835829558
1.0288,0.832089081
1.029,0.835829558
1.0292,0.835829558
1.0294,0.832089081
1.0296,0.835829558
1.0298,0.835829558
1.03,0.835829558
1.0302,0.835829558
1.0304,0.835829558
1.0306,0.832089081
1.0308,0.835829558
1.031,0.835829558
1.0312,0.832089081
1.0314,0.835829558
1.0316,0.835829558
1.0318,0.835829558
1.032,0.835829558
1.0322,0.832089081
1.0324,0.835829558
1.0326,0.835829558
1.0328,0.835829558
1.033,0.835829558
1.0332,0.835829558
1.0334,0.835829558
1.0336,0.835829558
1.0338,0.835829558
1.034,0.835829558
1.0342,0.835829558
1.0344,0.835829558
1.0346,0.835829558
1.0348,0.835829558
1.035,0.835829558
1.0352,0.835829558
1.0354,0.835829558
1.0356,0.835829558
1.0358,0.835829558
1.036,0.835829558
1.0362,0.835829558
1.0364,0.835829558
1.0366,0.835829558
1.0368,0.832089081
1.037,0.835829558
1.0372,0.835829558
1.0374,0.835829558
1.0376,0.835829558
1.0378,0.835829558
1.038,0.832089081
1.0382,0.835829558
1.0384,0.835829558
1.0386,0.835829558
1.0388,0.832089081
1.039,0.832089081
1.0392,0.835829558
1.0394,0.835829558
1.0396,0.835829558
1.0398,0.835829558
1.04,0.832089081
1.0402,0.832089081
1.0404,0.832089081
1.0406,0.832089081
1.0408,0.832089081
1.041,0.835829558
1.0412,0.835829558
1.0414,0.835829558
1.0416,0.835829558
1.0418,0.835829558
1.042,0.835829558
1.0422,0.835829558
1.0424,0.835829558
1.0426,0.835829558
1.0428,0.835829558
1.043,0.835829558
1.0432,0.835829558
1.0434,0.835829558
1.0436,0.835829558
1.0438,0.835829558
1.044,0.835829558
1.0442,0.835829558
1.0444,0.835829558
1.0446,0.835829558
1.0448,0.835829558
1.045,0.835829558
1.0452,0.835829558
1.0454,0.835829558
1.0456,0.835829558
1.0458,0.835829558
1.046,0.835829558
1.0462,0.835829558
1.0464,0.835829558
1.0466,0.835829558
1.0468,0.835829558
1.047,0.832089081
1.0472,0.835829558
1.0474,0.835829558
1.0476,0.835829558
1.0478,0.835829558
1.048,0.835829558
1.0482,0.835829558
1.0484,0.832089081
1.0486,0.835829558
1.0488,0.835829558
1.049,0.835829558
1.0492,0.835829558
1.0494,0.835829558
1.0496,0.835829558
1.0498,0.835829558
1.05,0.835829558
1.0502,0.835829558
1.0504,0.835829558
1.0506,0.835829558
1.0508,0.835829558
1.051,0.835829558
1.0512,0.835829558
1.0514,0.835829558
1.0516,0.835829558
1.0518,0.835829558
1.052,0.835829558
1.0522,0.835829558
1.0524,0.835829558
1.0526,0.835829558
1.0528,0.835829558
1.053,0.835829558
1.0532,0.832089081
1.0534,0.835829558
1.0536,0.835829558
1.0538,0.835829558
1.054,0.835829558
1.0542,0.835829558
1.0544,0.835829558
1.0546,0.832089081
1.0548,0.832089081
1.055,0.835829558
1.0552,0.832089081
1.0554,0.832089081
1.0556,0.835829558
1.0558,0.832089081
1.056,0.832089081
1.0562,0.835829558
1.0564,0.835829558
1.0566,0.832089081
1.0568,0.835829558
1.057,0.832089081
1.0572,0.835829558
1.0574,0.835829558
1.0576,0.835829558
1.0578,0.832089081
1.058,0.835829558
1.0582,0.832089081
1.0584,0.832089081
1.0586,0.835829558
1.0588,0.835829558
1.059,0.835829558
1.0592,0.835829558
1.0594,0.835829558
1.0596,0.835829558
1.0598,0.832089081
1.06,0.832089081
1.0602,0.835829558
1.0604,0.835829558
1.0606,0.835829558
1.0608,0.835829558
1.061,0.835829558
1.0612,0.835829558
1.0614,0.835829558
1.0616,0.835829558
1.0618,0.832089081
1.062,0.835829558
1.0622,0.835829558
1.0624,0.835829558
1.0626,0.832089081
1.0628,0.835829558
1.063,0.835829558
1.0632,0.835829558
1.0634,0.835829558
1.0636,0.835829558
1.0638,0.835829558
1.064,0.832089081
1.0642,0.835829558
1.0644,0.835829558
1.0646,0.835829558
1.0648,0.835829558
1.065,0.835829558
1.0652,0.835829558
1.0654,0.835829558
1.0656,0.835829558
1.0658,0.835829558
1.066,0.835829558
1.0662,0.835829558
1.0664,0.832089081
1.0666,0.832089081
1.0668,0.835829558
1.067,0.835829558
1.0672,0.832089081
1.0674,0.832089081
1.0676,0.835829558
1.0678,0.835829558
1.068,0.832089081
1.0682,0.835829558
1.0684,0.835829558
1.0686,0.835829558
1.0688,0.835829558
1.069,0.835829558
1.0692,0.835829558
1.0694,0.835829558
1.0696,0.835829558
1.0698,0.835829558
1.07,0.835829558
1.0702,0.835829558
1.0704,0.832089081
1.0706,0.835829558
1.0708,0.835829558
1.071,0.835829558
1.0712,0.832089081
1.0714,0.832089081
1.0716,0.835829558
1.0718,0.835829558
1.072,0.835829558
1.0722,0.835829558
1.0724,0.832089081
1.0726,0.832089081
1.0728,0.835829558
1.073,0.835829558
1.0732,0.835829558
1.0734,0.832089081
1.0736,0.835829558
1.0738,0.835829558
1.074,0.835829558
1.0742,0.835829558
1.0744,0.835829558
1.0746,0.835829558
1.0748,0.835829558
1.075,0.835829558
1.0752,0.835829558
1.0754,0.835829558
1.0756,0.832089081
1.0758,0.835829558
1.076,0.835829558
1.0762,0.835829558
1.0764,0.835829558
1.0766,0.835829558
1.0768,0.835829558
1.077,0.832089081
1.0772,0.835829558
1.0774,0.835829558
1.0776,0.835829558
1.0778,0.835829558
1.078,0.835829558
1.0782,0.835829558
1.0784,0.835829558
1.0786,0.835829558
1.0788,0.835829558
1.079,0.832089081
1.0792,0.835829558
1.0794,0.835829558
1.0796,0.835829558
1.0798,0.835829558
1.08,0.832089081
1.0802,0.832089081
1.0804,0.835829558
1.0806,0.835829558
1.0808,0.832089081
1.081,0.835829558
1.0812,0.835829558
1.0814,0.832089081
1.0816,0.832089081
1.0818,0.835829558
1.082,0.835829558
1.0822,0.835829558
1.0824,0.835829558
1.0826,0.835829558
1.0828,0.835829558
1.083,0.835829558
1.0832,0.835829558
1.0834,0.835829558
1.0836,0.835829558
1.0838,0.835829558
1.084,0.835829558
1.0842,0.835829558
1.0844,0.835829558
1.0846,0.835829558
1.0848,0.835829558
1.085,0.832089081
1.0852,0.835829558
1.0854,0.835829558
1.0856,0.835829558
1.0858,0.835829558
1.086,0.835829558
1.0862,0.832089081
1.0864,0.835829558
1.0866,0.835829558
1.0868,0.835829558
1.087,0.835829558
1.0872,0.835829558
1.0874,0.835829558
1.0876,0.835829558
1.0878,0.835829558
1.088,0.835829558
1.0882,0.832089081
1.0884,0.832089081
1.0886,0.835829558
1.0888,0.835829558
1.089,0.835829558
1.0892,0.835829558
1.0894,0.835829558
1.0896,0.835829558
1.0898,0.835829558
1.09,0.835829558
1.0902,0.835829558
1.0904,0.835829558
1.0906,0.835829558
1.0908,0.835829558
1.091,0.835829558
1.0912,0.835829558
1.0914,0.835829558
1.0916,0.835829558
1.0918,0.835829558
1.092,0.835829558
1.0922,0.835829558
1.0924,0.835829558
1.0926,0.835829558
1.0928,0.835829558
1.093,0.835829558
1.0932,0.835829558
1.0934,0.832089081
1.0936,0.835829558
1.0938,0.835829558
1.094,0.835829558
1.0942,0.835829558
1.0944,0.835829558
1.0946,0.832089081
1.0948,0.835829558
1.095,0.835829558
1.0952,0.835829558
1.0954,0.835829558
1.0956,0.835829558
1.0958,0.832089081
1.096,0.835829558
1.0962,0.835829558
1.0964,0.835829558
1.0966,0.835829558
1.0968,0.835829558
1.097,0.835829558
1.0972,0.835829558
1.0974,0.835829558
1.0976,0.835829558
1.0978,0.832089081
1.098,0.835829558
1.0982,0.835829558
1.0984,0.832089081
1.0986,0.835829558
1.0988,0.835829558
1.099,0.835829558
1.0992,0.835829558
1.0994,0.835829558
1.0996,0.835829558
1.0998,0.835829558
1.1,0.835829558
1.1002,0.835829558
1.1004,0.835829558
1.1006,0.835829558
1.1008,0.835829558
1.101,0.835829558
1.1012,0.835829558
1.1014,0.835829558
1.1016,0.835829558
1.1018,0.835829558
1.102,0.835829558
1.1022,0.835829558
1.1024,0.835829558
1.1026,0.835829558
1.1028,0.835829558
1.103,0.835829558
1.1032,0.835829558
1.1034,0.835829558
1.1036,0.835829558
1.1038,0.835829558
1.104,0.835829558
1.1042,0.835829558
1.1044,0.835829558
1.1046,0.835829558
1.1048,0.835829558
1.105,0.835829558
1.1052,0.835829558
1.1054,0.835829558
1.1056,0.835829558
1.1058,0.835829558
1.106,0.835829558
1.1062,0.835829558
1.1064,0.835829558
1.1066,0.835829558
1.1068,0.835829558
1.107,0.835829558
1.1072,0.835829558
1.1074,0.835829558
1.1076,0.835829558
1.1078,0.835829558
1.108,0.835829558
1.1082,0.835829558
1.1084,0.835829558
1.1086,0.835829558
1.1088,0.832089081
1.109,0.835829558
1.1092,0.835829558
1.1094,0.835829558
1.1096,0.835829558
1.1098,0.835829558
1.11,0.835829558
1.1102,0.835829558
1.1104,0.835829558
1.1106,0.835829558
1.1108,0.835829558
1.111,0.835829558
1.1112,0.835829558
1.1114,0.832089081
1.1116,0.835829558
1.1118,0.832089081
1.112,0.832089081
1.1122,0.835829558
1.1124,0.835829558
1.1126,0.835829558
1.1128,0.832089081
1.113,0.835829558
1.1132,0.832089081
1.1134,0.832089081
1.1136,0.835829558
1.1138,0.835829558
1.114,0.835829558
1.1142,0.835829558
1.1144,0.835829558
1.1146,0.835829558
1.1148,0.835829558
1.115,0.832089081
1.1152,0.832089081
1.1154,0.835829558
1.1156,0.832089081
1.1158,0.835829558
1.116,0.835829558
1.1162,0.832089081
1.1164,0.832089081
1.1166,0.832089081
1.1168,0.832089081
1.117,0.835829558
1.1172,0.835829558
1.1174,0.835829558
1.1176,0.835829558
1.1178,0.835829558
1.118,0.835829558
1.1182,0.832089081
1.1184,0.835829558
1.1186,0.832089081
1.1188,0.835829558
1.119,0.835829558
1.1192,0.835829558
1.1194,0.835829558
1.1196,0.835829558
1.1198,0.835829558
1.12,0.835829558
1.1202,0.835829558
1.1204,0.835829558
1.1206,0.835829558
1.1208,0.835829558
1.121,0.835829558
1.1212,0.835829558
1.1214,0.835829558
1.1216,0.835829558
1.1218,0.835829558
1.122,0.835829558
1.1222,0.835829558
1.1224,0.835829558
1.1226,0.835829558
1.1228,0.835829558
1.123,0.835829558
1.1232,0.835829558
1.1234,0.835829558
1.1236,0.835829558
1.1238,0.835829558
1.124,0.835829558
1.1242,0.835829558
1.1244,0.835829558
1.1246,0.835829558
1.1248,0.835829558
1.125,0.835829558
1.1252,0.835829558
1.1254,0.835829558
1.1256,0.835829558
1.1258,0.835829558
1.126,0.832089081
1.1262,0.835829558
1.1264,0.835829558
1.1266,0.835829558
1.1268,0.835829558
1.127,0.835829558
1.1272,0.835829558
1.1274,0.835829558
1.1276,0.835829558
1.1278,0.835829558
1.128,0.835829558
1.1282,0.835829558
1.1284,0.835829558
1.1286,0.835829558
1.1288,0.835829558
1.129,0.835829558
1.1292,0.835829558
1.1294,0.835829558
1.1296,0.835829558
1.1298,0.835829558
1.13,0.835829558
1.1302,0.835829558
1.1304,0.835829558
1.1306,0.835829558
1.1308,0.835829558
1.131,0.835829558
1.1312,0.835829558
1.1314,0.835829558
1.1316,0.835829558
1.1318,0.835829558
1.132,0.835829558
1.1322,0.835829558
1.1324,0.835829558
1.1326,0.835829558
1.1328,0.835829558
1.133,0.832089081
1.1332,0.835829558
1.1334,0.835829558
1.1336,0.835829558
1.1338,0.832089081
1.134,0.832089081
1.1342,0.835829558
1.1344,0.835829558
1.1346,0.835829558
1.1348,0.835829558
1.135,0.835829558
1.1352,0.832089081
1.1354,0.835829558
1.1356,0.835829558
1.1358,0.835829558
1.136,0.835829558
1.1362,0.835829558
1.1364,0.835829558
1.1366,0.835829558
1.1368,0.835829558
1.137,0.835829558
1.1372,0.835829558
1.1374,0.835829558
1.1376,0.835829558
1.1378,0.835829558
1.138,0.835829558
1.1382,0.832089081
1.1384,0.835829558
1.1386,0.835829558
1.1388,0.835829558
1.139,0.835829558
1.1392,0.835829558
1.1394,0.835829558
1.1396,0.835829558
1.1398,0.835829558
1.14,0.835829558
1.1402,0.835829558
1.1404,0.835829558
1.1406,0.835829558
1.1408,0.835829558
1.141,0.835829558
1.1412,0.835829558
1.1414,0.835829558
1.1416,0.835829558
1.1418,0.835829558
1.142,0.835829558
1.1422,0.835829558
1.1424,0.835829558
1.1426,0.835829558
1.1428,0.832089081
1.143,0.835829558
1.1432,0.835829558
1.1434,0.835829558
1.1436,0.835829558
1.1438,0.835829558
1.144,0.835829558
1.1442,0.835829558
1.1444,0.835829558
1.1446,0.835829558
1.1448,0.835829558
1.145,0.835829558
1.1452,0.835829558
1.1454,0.832089081
1.1456,0.835829558
1.1458,0.835829558
1.146,0.835829558
1.1462,0.835829558
1.1464,0.835829558
1.1466,0.835829558
1.1468,0.835829558
1.147,0.835829558
1.1472,0.835829558
1.1474,0.835829558
1.1476,0.835829558
1.1478,0.835829558
1.148,0.835829558
1.1482,0.835829558
1.1484,0.835829558
1.1486,0.835829558
1.1488,0.835829558
1.149,0.835829558
1.1492,0.835829558
1.1494,0.835829558
1.1496,0.835829558
1.1498,0.835829558
1.15,0.835829558
1.1502,0.835829558
1.1504,0.832089081
1.1506,0.835829558
1.1508,0.835829558
1.151,0.835829558
1.1512,0.832089081
1.1514,0.835829558
1.1516,0.835829558
1.1518,0.835829558
1.152,0.835829558
1.1522,0.835829558
1.1524,0.835829558
1.1526,0.832089081
1.1528,0.835829558
1.153,0.835829558
1.1532,0.835829558
1.1534,0.835829558
1.1536,0.835829558
1.1538,0.835829558
1.154,0.835829558
1.1542,0.835829558
1.1544,0.835829558
1.1546,0.835829558
1.1548,0.835829558
1.155,0.835829558
1.1552,0.835829558
1.1554,0.835829558
1.1556,0.835829558
1.1558,0.835829558
1.156,0.835829558
1.1562,0.835829558
1.1564,0.835829558
1.1566,0.835829558
1.1568,0.835829558
1.157,0.835829558
1.1572,0.835829558
1.1574,0.835829558
1.1576,0.835829558
1.1578,0.835829558
1.158,0.835829558
1.1582,0.835829558
1.1584,0.835829558
1.1586,0.835829558
1.1588,0.835829558
1.159,0.832089081
1.1592,0.832089081
1.1594,0.835829558
1.1596,0.835829558
1.1598,0.835829558
1.16,0.835829558
1.1602,0.835829558
1.1604,0.835829558
1.1606,0.835829558
1.1608,0.832089081
1.161,0.832089081
1.1612,0.832089081
1.1614,0.832089081
1.1616,0.835829558
1.1618,0.835829558
1.162,0.835829558
1.1622,0.835829558
1.1624,0.835829558
1.1626,0.835829558
1.1628,0.835829558
1.163,0.835829558
1.1632,0.835829558
1.1634,0.835829558
1.1636,0.835829558
1.1638,0.835829558
1.164,0.835829558
1.1642,0.835829558
1.1644,0.835829558
1.1646,0.835829558
1.1648,0.835829558
1.165,0.835829558
1.1652,0.835829558
1.1654,0.835829558
1.1656,0.835829558
1.1658,0.835829558
1.166,0.835829558
1.1662,0.835829558
1.1664,0.835829558
1.1666,0.835829558
1.1668,0.835829558
1.167,0.835829558
1.1672,0.835829558
1.1674,0.835829558
1.1676,0.835829558
1.1678,0.835829558
1.168,0.835829558
1.1682,0.835829558
1.1684,0.835829558
1.1686,0.835829558
1.1688,0.835829558
1.169,0.835829558
1.1692,0.835829558
1.1694,0.835829558
1.1696,0.835829558
1.1698,0.835829558
1.17,0.835829558
1.1702,0.835829558
1.1704,0.835829558
1.1706,0.835829558
1.1708,0.835829558
1.171,0.835829558
1.1712,0.835829558
1.1714,0.835829558
1.1716,0.835829558
1.1718,0.835829558
1.172,0.835829558
1.1722,0.835829558
1.1724,0.835829558
1.1726,0.835829558
1.1728,0.835829558
1.173,0.835829558
1.1732,0.835829558
1.1734,0.835829558
1.1736,0.835829558
1.1738,0.835829558
1.174,0.835829558
1.1742,0.835829558
1.1744,0.835829558
1.1746,0.835829558
1.1748,0.835829558
1.175,0.835829558
1.1752,0.835829558
1.1754,0.835829558
1.1756,0.835829558
1.1758,0.835829558
1.176,0.835829558
1.1762,0.835829558
1.1764,0.835829558
1.1766,0.835829558
1.1768,0.835829558
1.177,0.835829558
1.1772,0.835829558
1.1774,0.835829558
1.1776,0.835829558
1.1778,0.835829558
1.178,0.835829558
1.1782,0.835829558
1.1784,0.835829558
1.1786,0.835829558
1.1788,0.835829558
1.179,0.835829558
1.1792,0.835829558
1.1794,0.835829558
1.1796,0.835829558
1.1798,0.835829558
1.18,0.835829558
1.1802,0.835829558
1.1804,0.835829558
1.1806,0.835829558
1.1808,0.835829558
1.181,0.835829558
1.1812,0.835829558
1.1814,0.835829558
1.1816,0.835829558
1.1818,0.835829558
1.182,0.835829558
1.1822,0.835829558
1.1824,0.835829558
1.1826,0.835829558
1.1828,0.835829558
1.183,0.835829558
1.1832,0.835829558
1.1834,0.835829558
1.1836,0.835829558
1.1838,0.835829558
1.184,0.835829558
1.1842,0.835829558
1.1844,0.835829558
1.1846,0.835829558
1.1848,0.835829558
1.185,0.835829558
1.1852,0.835829558
1.1854,0.835829558
1.1856,0.835829558
1.1858,0.835829558
1.186,0.835829558
1.1862,0.835829558
1.1864,0.835829558
1.1866,0.835829558
1.1868,0.835829558
1.187,0.835829558
1.1872,0.835829558
1.1874,0.835829558
1.1876,0.835829558
1.1878,0.835829558
1.188,0.835829558
1.1882,0.835829558
1.1884,0.835829558
1.1886,0.835829558
1.1888,0.835829558
1.189,0.835829558
1.1892,0.835829558
1.1894,0.835829558
1.1896,0.835829558
1.1898,0.835829558
1.19,0.835829558
1.1902,0.835829558
1.1904,0.835829558
1.1906,0.835829558
1.1908,0.835829558
1.191,0.835829558
1.1912,0.835829558
1.1914,0.835829558
1.1916,0.835829558
1.1918,0.835829558
1.192,0.835829558
1.1922,0.835829558
1.1924,0.835829558
1.1926,0.835829558
1.1928,0.835829558
1.193,0.835829558
1.1932,0.835829558
1.1934,0.835829558
1.1936,0.832089081
1.1938,0.835829558
1.194,0.835829558
1.1942,0.832089081
1.1944,0.835829558
1.1946,0.835829558
1.1948,0.835829558
1.195,0.835829558
1.1952,0.835829558
1.1954,0.835829558
1.1956,0.835829558
1.1958,0.835829558
1.196,0.835829558
1.1962,0.835829558
1.1964,0.835829558
1.1966,0.835829558
1.1968,0.835829558
1.197,0.835829558
1.1972,0.835829558
1.1974,0.835829558
1.1976,0.835829558
1.1978,0.835829558
1.198,0.835829558
1.1982,0.835829558
1.1984,0.835829558
1.1986,0.835829558
1.1988,0.835829558
1.199,0.835829558
1.1992,0.835829558
1.1994,0.835829558
1.1996,0.835829558
1.1998,0.835829558
1.2,0.835829558
1.2002,0.835829558
1.2004,0.835829558
1.2006,0.835829558
1.2008,0.835829558
1.201,0.835829558
1.2012,0.835829558
1.2014,0.835829558
1.2016,0.835829558
1.2018,0.835829558
1.202,0.835829558
1.2022,0.835829558
1.2024,0.835829558
1.2026,0.835829558
1.2028,0.835829558
1.203,0.835829558
1.2032,0.835829558
1.2034,0.835829558
1.2036,0.835829558
1.2038,0.835829558
1.204,0.835829558
1.2042,0.835829558
1.2044,0.835829558
1.2046,0.835829558
1.2048,0.835829558
1.205,0.835829558
1.2052,0.835829558
1.2054,0.835829558
1.2056,0.835829558
1.2058,0.835829558
1.206,0.835829558
1.2062,0.835829558
1.2064,0.835829558
1.2066,0.835829558
1.2068,0.835829558
1.207,0.835829558
1.2072,0.835829558
1.2074,0.835829558
1.2076,0.835829558
1.2078,0.835829558
1.208,0.835829558
1.2082,0.835829558
1.2084,0.835829558
1.2086,0.835829558
1.2088,0.835829558
1.209,0.835829558
1.2092,0.835829558
1.2094,0.835829558
1.2096,0.835829558
1.2098,0.835829558
1.21,0.835829558
1.2102,0.835829558
1.2104,0.835829558
1.2106,0.835829558
1.2108,0.835829558
1.211,0.835829558
1.2112,0.835829558
1.2114,0.835829558
1.2116,0.835829558
1.2118,0.835829558
1.212,0.835829558
1.2122,0.835829558
1.2124,0.835829558
1.2126,0.835829558
1.2128,0.835829558
1.213,0.835829558
1.2132,0.835829558
1.2134,0.835829558
1.2136,0.835829558
1.2138,0.835829558
1.214,0.835829558
1.2142,0.835829558
1.2144,0.835829558
1.2146,0.835829558
1.2148,0.835829558
1.215,0.835829558
1.2152,0.835829558
1.2154,0.835829558
1.2156,0.835829558
1.2158,0.835829558
1.216,0.835829558
1.2162,0.832089081
1.2164,0.835829558
1.2166,0.835829558
1.2168,0.835829558
1.217,0.835829558
1.2172,0.835829558
1.2174,0.835829558
1.2176,0.835829558
1.2178,0.835829558
1.218,0.835829558
1.2182,0.832089081
1.2184,0.835829558
1.2186,0.835829558
1.2188,0.835829558
1.219,0.835829558
1.2192,0.835829558
1.2194,0.835829558
1.2196,0.835829558
1.2198,0.835829558
1.22,0.835829558
1.2202,0.835829558
1.2204,0.835829558
1.2206,0.835829558
1.2208,0.835829558
1.221,0.835829558
1.2212,0.835829558
1.2214,0.835829558
1.2216,0.835829558
1.2218,0.835829558
1.222,0.835829558
1.2222,0.835829558
1.2224,0.835829558
1.2226,0.835829558
1.2228,0.835829558
1.223,0.835829558
1.2232,0.835829558
1.2234,0.835829558
1.2236,0.835829558
1.2238,0.835829558
1.224,0.835829558
1.2242,0.835829558
1.2244,0.835829558
1.2246,0.835829558
1.2248,0.835829558
1.225,0.835829558
1.2252,0.835829558
1.2254,0.835829558
1.2256,0.835829558
1.2258,0.835829558
1.226,0.835829558
1.2262,0.835829558
1.2264,0.835829558
1.2266,0.835829558
1.2268,0.835829558
1.227,0.835829558
1.2272,0.835829558
1.2274,0.835829558
1.2276,0.835829558
1.2278,0.835829558
1.228,0.835829558
1.2282,0.835829558
1.2284,0.835829558
1.2286,0.835829558
1.2288,0.835829558
1.229,0.835829558
1.2292,0.835829558
1.2294,0.835829558
1.2296,0.835829558
1.2298,0.835829558
1.23,0.835829558
1.2302,0.835829558
1.2304,0.835829558
1.2306,0.835829558
1.2308,0.835829558
1.231,0.835829558
1.2312,0.835829558
1.2314,0.835829558
1.2316,0.835829558
1.2318,0.835829558
1.232,0.835829558
1.2322,0.835829558
1.2324,0.835829558
1.2326,0.835829558
1.2328,0.835829558
1.233,0.835829558
1.2332,0.835829558
1.2334,0.835829558
1.2336,0.835829558
1.2338,0.835829558
1.234,0.835829558
1.2342,0.835829558
1.2344,0.835829558
1.2346,0.835829558
1.2348,0.835829558
1.235,0.835829558
1.2352,0.835829558
1.2354,0.835829558
1.2356,0.835829558
1.2358,0.835829558
1.236,0.835829558
1.2362,0.835829558
1.2364,0.835829558
1.2366,0.835829558
1.2368,0.835829558
1.237,0.832089081
1.2372,0.835829558
1.2374,0.835829558
1.2376,0.835829558
1.2378,0.832089081
1.238,0.835829558
1.2382,0.835829558
1.2384,0.835829558
1.2386,0.835829558
1.2388,0.835829558
1.239,0.835829558
1.2392,0.835829558
1.2394,0.835829558
1.2396,0.835829558
1.2398,0.835829558
1.24,0.835829558
1.2402,0.835829558
1.2404,0.835829558
1.2406,0.835829558
1.2408,0.835829558
1.241,0.835829558
1.2412,0.835829558
1.2414,0.832089081
1.2416,0.835829558
1.2418,0.835829558
1.242,0.835829558
1.2422,0.835829558
1.2424,0.835829558
1.2426,0.835829558
1.2428,0.835829558
1.243,0.835829558
1.2432,0.835829558
1.2434,0.835829558
1.2436,0.835829558
1.2438,0.835829558
1.244,0.835829558
1.2442,0.835829558
1.2444,0.835829558
1.2446,0.835829558
1.2448,0.835829558
1.245,0.835829558
1.2452,0.835829558
1.2454,0.835829558
1.2456,0.835829558
1.2458,0.835829558
1.246,0.835829558
1.2462,0.835829558
1.2464,0.835829558
1.2466,0.832089081
1.2468,0.835829558
1.247,0.835829558
1.2472,0.835829558
1.2474,0.835829558
1.2476,0.835829558
1.2478,0.835829558
1.248,0.835829558
1.2482,0.835829558
1.2484,0.835829558
1.2486,0.835829558
1.2488,0.835829558
1.249,0.832089081
1.2492,0.835829558
1.2494,0.835829558
1.2496,0.835829558
1.2498,0.835829558
1.25,0.835829558
1.2502,0.835829558
1.2504,0.835829558
1.2506,0.835829558
1.2508,0.835829558
1.251,0.835829558
1.2512,0.835829558
1.2514,0.835829558
1.2516,0.835829558
1.2518,0.835829558
1.252,0.835829558
1.2522,0.835829558
1.2524,0.835829558
1.2526,0.835829558
1.2528,0.835829558
1.253,0.835829558
1.2532,0.835829558
1.2534,0.835829558
1.2536,0.835829558
1.2538,0.835829558
1.254,0.835829558
1.2542,0.835829558
1.2544,0.835829558
1.2546,0.835829558
1.2548,0.835829558
1.255,0.835829558
1.2552,0.835829558
1.2554,0.835829558
1.2556,0.835829558
1.2558,0.835829558
1.256,0.835829558
1.2562,0.832089081
1.2564,0.832089081
1.2566,0.835829558
1.2568,0.835829558
1.257,0.835829558
1.2572,0.835829558
1.2574,0.835829558
1.2576,0.835829558
1.2578,0.835829558
1.258,0.835829558
1.2582,0.835829558
1.2584,0.835829558
1.2586,0.835829558
1.2588,0.835829558
1.259,0.832089081
1.2592,0.835829558
1.2594,0.835829558
1.2596,0.835829558
1.2598,0.835829558
1.26,0.835829558
1.2602,0.835829558
1.2604,0.835829558
1.2606,0.835829558
1.2608,0.835829558
1.261,0.835829558
1.2612,0.835829558
1.2614,0.835829558
1.2616,0.835829558
1.2618,0.835829558
1.262,0.835829558
1.2622,0.835829558
1.2624,0.835829558
1.2626,0.835829558
1.2628,0.835829558
1.263,0.835829558
1.2632,0.835829558
1.2634,0.835829558
1.2636,0.835829558
1.2638,0.835829558
1.264,0.835829558
1.2642,0.835829558
1.2644,0.835829558
1.2646,0.835829558
1.2648,0.835829558
1.265,0.835829558
1.2652,0.835829558
1.2654,0.835829558
1.2656,0.835829558
1.2658,0.835829558
1.266,0.835829558
1.2662,0.835829558
1.2664,0.835829558
1.2666,0.835829558
1.2668,0.835829558
1.267,0.835829558
1.2672,0.835829558
1.2674,0.835829558
1.2676,0.835829558
1.2678,0.835829558
1.268,0.835829558
1.2682,0.835829558
1.2684,0.835829558
1.2686,0.835829558
1.2688,0.835829558
1.269,0.835829558
1.2692,0.835829558
1.2694,0.835829558
1.2696,0.835829558
1.2698,0.835829558
1.27,0.835829558
1.2702,0.835829558
1.2704,0.835829558
1.2706,0.835829558
1.2708,0.835829558
1.271,0.835829558
1.2712,0.835829558
1.2714,0.835829558
1.2716,0.835829558
1.2718,0.835829558
1.272,0.835829558
1.2722,0.835829558
1.2724,0.835829558
1.2726,0.835829558
1.2728,0.835829558
1.273,0.835829558
1.2732,0.835829558
1.2734,0.835829558
1.2736,0.835829558
1.2738,0.835829558
1.274,0.835829558
1.2742,0.835829558
1.2744,0.835829558
1.2746,0.832089081
1.2748,0.835829558
1.275,0.835829558
1.2752,0.835829558
1.2754,0.835829558
1.2756,0.835829558
1.2758,0.835829558
1.276,0.835829558
1.2762,0.835829558
1.2764,0.835829558
1.2766,0.835829558
1.2768,0.835829558
1.277,0.835829558
1.2772,0.835829558
1.2774,0.835829558
1.2776,0.835829558
1.2778,0.835829558
1.278,0.835829558
1.2782,0.835829558
1.2784,0.835829558
1.2786,0.835829558
1.2788,0.835829558
1.279,0.835829558
1.2792,0.835829558
1.2794,0.835829558
1.2796,0.835829558
1.2798,0.835829558
1.28,0.835829558
1.2802,0.835829558
1.2804,0.835829558
1.2806,0.835829558
1.2808,0.835829558
1.281,0.835829558
1.2812,0.832089081
1.2814,0.835829558
1.2816,0.835829558
1.2818,0.835829558
1.282,0.835829558
1.2822,0.835829558
1.2824,0.835829558
1.2826,0.835829558
1.2828,0.835829558
1.283,0.835829558
1.2832,0.835829558
1.2834,0.835829558
1.2836,0.835829558
1.2838,0.835829558
1.284,0.835829558
1.2842,0.835829558
1.2844,0.835829558
1.2846,0.835829558
1.2848,0.835829558
1.285,0.835829558
1.2852,0.835829558
1.2854,0.835829558
1.2856,0.835829558
1.2858,0.835829558
1.286,0.835829558
1.2862,0.835829558
1.2864,0.835829558
1.2866,0.835829558
1.2868,0.835829558
1.287,0.835829558
1.2872,0.835829558
1.2874,0.835829558
1.2876,0.835829558
1.2878,0.835829558
1.288,0.835829558
1.2882,0.835829558
1.2884,0.835829558
1.2886,0.835829558
1.2888,0.835829558
1.289,0.835829558
1.2892,0.835829558
1.2894,0.835829558
1.2896,0.835829558
1.2898,0.835829558
1.29,0.835829558
1.2902,0.835829558
1.2904,0.835829558
1.2906,0.835829558
1.2908,0.835829558
1.291,0.835829558
1.2912,0.835829558
1.2914,0.835829558
1.2916,0.835829558
1.2918,0.835829558
1.292,0.835829558
1.2922,0.835829558
1.2924,0.835829558
1.2926,0.832089081
1.2928,0.835829558
1.293,0.835829558
1.2932,0.835829558
1.2934,0.835829558
1.2936,0.835829558
1.2938,0.835829558
1.294,0.835829558
1.2942,0.835829558
1.2944,0.835829558
1.2946,0.835829558
1.2948,0.835829558
1.295,0.835829558
1.2952,0.835829558
1.2954,0.835829558
1.2956,0.835829558
1.2958,0.835829558
1.296,0.835829558
1.2962,0.832089081
1.2964,0.835829558
1.2966,0.832089081
1.2968,0.835829558
1.297,0.832089081
1.2972,0.835829558
1.2974,0.835829558
1.2976,0.835829558
1.2978,0.835829558
1.298,0.835829558
1.2982,0.835829558
1.2984,0.835829558
1.2986,0.835829558
1.2988,0.835829558
1.299,0.835829558
1.2992,0.835829558
1.2994,0.835829558
1.2996,0.835829558
1.2998,0.835829558
1.3,0.835829558
1.3002,0.832089081
1.3004,0.835829558
1.3006,0.835829558
1.3008,0.835829558
1.301,0.835829558
1.3012,0.835829558
1.3014,0.835829558
1.3016,0.835829558
1.3018,0.832089081
1.302,0.832089081
1.3022,0.835829558
1.3024,0.835829558
1.3026,0.835829558
1.3028,0.835829558
1.303,0.835829558
1.3032,0.835829558
1.3034,0.835829558
1.3036,0.835829558
1.3038,0.835829558
1.304,0.835829558
1.3042,0.832089081
1.3044,0.835829558
1.3046,0.832089081
1.3048,0.835829558
1.305,0.835829558
1.3052,0.835829558
1.3054,0.835829558
1.3056,0.835829558
1.3058,0.835829558
1.306,0.835829558
1.3062,0.835829558
1.3064,0.835829558
1.3066,0.835829558
1.3068,0.835829558
1.307,0.835829558
1.3072,0.835829558
1.3074,0.832089081
1.3076,0.835829558
1.3078,0.832089081
1.308,0.835829558
1.3082,0.835829558
1.3084,0.835829558
1.3086,0.835829558
1.3088,0.835829558
1.309,0.835829558
1.3092,0.835829558
1.3094,0.835829558
1.3096,0.835829558
1.3098,0.835829558
1.31,0.835829558
1.3102,0.835829558
1.3104,0.835829558
1.3106,0.835829558
1.3108,0.835829558
1.311,0.832089081
1.3112,0.835829558
1.3114,0.835829558
1.3116,0.835829558
1.3118,0.835829558
1.312,0.835829558
1.3122,0.835829558
1.3124,0.835829558
1.3126,0.835829558
1.3128,0.835829558
1.313,0.835829558
1.3132,0.835829558
1.3134,0.835829558
1.3136,0.835829558
1.3138,0.835829558
1.314,0.835829558
1.3142,0.835829558
1.3144,0.835829558
1.3146,0.835829558
1.3148,0.835829558
1.315,0.835829558
1.3152,0.832089081
1.3154,0.832089081
1.3156,0.835829558
1.3158,0.835829558
1.316,0.835829558
1.3162,0.832089081
1.3164,0.832089081
1.3166,0.832089081
1.3168,0.835829558
1.317,0.835829558
1.3172,0.835829558
1.3174,0.832089081
1.3176,0.832089081
1.3178,0.832089081
1.318,0.835829558
1.3182,0.832089081
1.3184,0.832089081
1.3186,0.832089081
1.3188,0.835829558
1.319,0.835829558
1.3192,0.835829558
1.3194,0.835829558
1.3196,0.835829558
1.3198,0.832089081
1.32,0.835829558
1.3202,0.835829558
1.3204,0.835829558
1.3206,0.835829558
1.3208,0.835829558
1.321,0.835829558
1.3212,0.832089081
1.3214,0.832089081
1.3216,0.835829558
1.3218,0.835829558
1.322,0.835829558
1.3222,0.835829558
1.3224,0.835829558
1.3226,0.835829558
1.3228,0.835829558
1.323,0.832089081
1.3232,0.832089081
1.3234,0.835829558
1.3236,0.835829558
1.3238,0.835829558
1.324,0.835829558
1.3242,0.835829558
1.3244,0.835829558
1.3246,0.832089081
1.3248,0.835829558
1.325,0.835829558
1.3252,0.835829558
1.3254,0.835829558
1.3256,0.835829558
1.3258,0.835829558
1.326,0.835829558
1.3262,0.835829558
1.3264,0.835829558
1.3266,0.835829558
1.3268,0.835829558
1.327,0.835829558
1.3272,0.835829558
1.3274,0.835829558
1.3276,0.835829558
1.3278,0.832089081
1.328,0.835829558
1.3282,0.835829558
1.3284,0.835829558
1.3286,0.835829558
1.3288,0.835829558
1.329,0.835829558
1.3292,0.835829558
1.3294,0.832089081
1.3296,0.832089081
1.3298,0.835829558
1.33,0.835829558
1.3302,0.835829558
1.3304,0.835829558
1.3306,0.832089081
1.3308,0.835829558
1.331,0.835829558
1.3312,0.835829558
1.3314,0.832089081
1.3316,0.835829558
1.3318,0.835829558
1.332,0.835829558
1.3322,0.835829558
1.3324,0.832089081
1.3326,0.835829558
1.3328,0.835829558
1.333,0.832089081
1.3332,0.832089081
1.3334,0.835829558
1.3336,0.835829558
1.3338,0.835829558
1.334,0.835829558
1.3342,0.835829558
1.3344,0.835829558
1.3346,0.835829558
1.3348,0.835829558
1.335,0.835829558
1.3352,0.835829558
1.3354,0.835829558
1.3356,0.835829558
1.3358,0.832089081
1.336,0.832089081
1.3362,0.835829558
1.3364,0.832089081
1.3366,0.832089081
1.3368,0.835829558
1.337,0.835829558
1.3372,0.835829558
1.3374,0.835829558
1.3376,0.832089081
1.3378,0.832089081
1.338,0.835829558
1.3382,0.835829558
1.3384,0.835829558
1.3386,0.835829558
1.3388,0.835829558
1.339,0.835829558
1.3392,0.835829558
1.3394,0.835829558
1.3396,0.835829558
1.3398,0.835829558
1.34,0.835829558
1.3402,0.835829558
1.3404,0.835829558
1.3406,0.835829558
1.3408,0.835829558
1.341,0.835829558
1.3412,0.835829558
1.3414,0.835829558
1.3416,0.835829558
1.3418,0.835829558
1.342,0.835829558
1.3422,0.835829558
1.3424,0.835829558
1.3426,0.835829558
1.3428,0.835829558
1.343,0.835829558
1.3432,0.835829558
1.3434,0.835829558
1.3436,0.835829558
1.3438,0.835829558
1.344,0.835829558
1.3442,0.835829558
1.3444,0.835829558
1.3446,0.835829558
1.3448,0.835829558
1.345,0.835829558
1.3452,0.835829558
1.3454,0.835829558
1.3456,0.832089081
1.3458,0.835829558
1.346,0.835829558
1.3462,0.832089081
1.3464,0.832089081
1.3466,0.835829558
1.3468,0.835829558
1.347,0.835829558
1.3472,0.835829558
1.3474,0.835829558
1.3476,0.835829558
1.3478,0.835829558
1.348,0.832089081
1.3482,0.835829558
1.3484,0.835829558
1.3486,0.835829558
1.3488,0.835829558
1.349,0.835829558
1.3492,0.832089081
1.3494,0.832089081
1.3496,0.835829558
1.3498,0.835829558
1.35,0.835829558
1.3502,0.832089081
1.3504,0.832089081
1.3506,0.835829558
1.3508,0.835829558
1.351,0.835829558
1.3512,0.835829558
1.3514,0.835829558
1.3516,0.835829558
1.3518,0.835829558
1.352,0.832089081
1.3522,0.835829558
1.3524,0.835829558
1.3526,0.835829558
1.3528,0.835829558
1.353,0.835829558
1.3532,0.835829558
1.3534,0.835829558
1.3536,0.835829558
1.3538,0.835829558
1.354,0.832089081
1.3542,0.835829558
1.3544,0.835829558
1.3546,0.832089081
1.3548,0.832089081
1.355,0.832089081
1.3552,0.835829558
1.3554,0.835829558
1.3556,0.835829558
1.3558,0.835829558
1.356,0.835829558
1.3562,0.835829558
1.3564,0.835829558
1.3566,0.835829558
1.3568,0.835829558
1.357,0.835829558
1.3572,0.835829558
1.3574,0.835829558
1.3576,0.835829558
1.3578,0.835829558
1.358,0.835829558
1.3582,0.835829558
1.3584,0.835829558
1.3586,0.835829558
1.3588,0.835829558
1.359,0.835829558
1.3592,0.835829558
1.3594,0.835829558
1.3596,0.835829558
1.3598,0.835829558
1.36,0.832089081
1.3602,0.832089081
1.3604,0.832089081
1.3606,0.835829558
1.3608,0.835829558
1.361,0.832089081
1.3612,0.835829558
1.3614,0.835829558
1.3616,0.835829558
1.3618,0.835829558
1.362,0.835829558
1.3622,0.832089081
1.3624,0.835829558
1.3626,0.835829558
1.3628,0.835829558
1.363,0.835829558
1.3632,0.835829558
1.3634,0.835829558
1.3636,0.835829558
1.3638,0.835829558
1.364,0.835829558
1.3642,0.835829558
1.3644,0.835829558
1.3646,0.835829558
1.3648,0.835829558
1.365,0.835829558
1.3652,0.835829558
1.3654,0.835829558
1.3656,0.835829558
1.3658,0.835829558
1.366,0.835829558
1.3662,0.835829558
1.3664,0.835829558
1.3666,0.835829558
1.3668,0.835829558
1.367,0.835829558
1.3672,0.835829558
1.3674,0.835829558
1.3676,0.835829558
1.3678,0.832089081
1.368,0.835829558
1.3682,0.835829558
1.3684,0.835829558
1.3686,0.835829558
1.3688,0.835829558
1.369,0.832089081
1.3692,0.835829558
1.3694,0.835829558
1.3696,0.835829558
1.3698,0.835829558
1.37,0.835829558
1.3702,0.835829558
1.3704,0.835829558
1.3706,0.835829558
1.3708,0.835829558
1.371,0.835829558
1.3712,0.835829558
1.3714,0.835829558
1.3716,0.835829558
1.3718,0.835829558
1.372,0.835829558
1.3722,0.835829558
1.3724,0.835829558
1.3726,0.835829558
1.3728,0.835829558
1.373,0.835829558
1.3732,0.835829558
1.3734,0.835829558
1.3736,0.835829558
1.3738,0.835829558
1.374,0.835829558
1.3742,0.835829558
1.3744,0.835829558
1.3746,0.835829558
1.3748,0.835829558
1.375,0.835829558
1.3752,0.835829558
1.3754,0.835829558
1.3756,0.835829558
1.3758,0.835829558
1.376,0.835829558
1.3762,0.835829558
1.3764,0.835829558
1.3766,0.835829558
1.3768,0.832089081
1.377,0.832089081
1.3772,0.835829558
1.3774,0.835829558
1.3776,0.835829558
1.3778,0.835829558
1.378,0.835829558
1.3782,0.835829558
1.3784,0.832089081
1.3786,0.835829558
1.3788,0.835829558
1.379,0.835829558
1.3792,0.835829558
1.3794,0.835829558
1.3796,0.835829558
1.3798,0.835829558
1.38,0.835829558
1.3802,0.835829558
1.3804,0.835829558
1.3806,0.835829558
1.3808,0.835829558
1.381,0.835829558
1.3812,0.835829558
1.3814,0.835829558
1.3816,0.835829558
1.3818,0.835829558
1.382,0.835829558
